#   1 NUMBER                 Running object number                                     
#   2 X_IMAGE                Object position along x                                    [pixel]
#   3 Y_IMAGE                Object position along y                                    [pixel]
#   4 ALPHA_J2000            Right ascension of barycenter (J2000)                      [deg]
#   5 DELTA_J2000            Declination of barycenter (J2000)                          [deg]
#   6 FLUX_APER              Flux vector within fixed circular aperture(s)              [count]
#   7 FLUXERR_APER           RMS error vector for aperture flux(es)                     [count]
#   8 FLUX_RADIUS            Fraction-of-light radii                                    [pixel]
#   9 FWHM_IMAGE             FWHM assuming a gaussian core                              [pixel]
#  10 BACKGROUND             Background at centroid position                            [count]
#  11 THRESHOLD              Detection threshold above background                       [count]
#  12 FLUX_MAX               Peak flux above background                                 [count]
#  13 ISOAREA_IMAGE          Isophotal area above Analysis threshold                    [pixel**2]
#  14 A_IMAGE                Profile RMS along major axis                               [pixel]
#  15 B_IMAGE                Profile RMS along minor axis                               [pixel]
#  16 THETA_IMAGE            Position angle (CCW/x)                                     [deg]
#  17 FLAGS                  Extraction flags                                          
         1    696.3322     16.2618 300.3928683 +22.6016328     733.2849     72.02919      1.471     3.12     6.048092     20.30611     89.16643        12     1.030     0.811  43.53   0
         2    502.0428     15.5793 300.3325587 +22.5433022     1236.927     72.01087      1.625     2.63     5.242285     20.30611     141.0099        19     1.261     0.973  43.82   0
         3     74.9052     15.3889 300.1997255 +22.4153622     539.9926      71.9192      1.497     5.17     6.156249     20.30611     54.52593        10     1.273     0.767 -36.18   0
         4    405.6720     13.4558 300.3032412 +22.5138480     909.9244     71.99255      1.540     2.81     5.299292     20.30611     115.2646        18     1.127     0.971  13.46   0
         5    257.7092      6.1721 300.2595561 +22.4674597     314.3156     71.95588      1.712     4.33     5.448879     20.30611     32.59318         6     0.926     0.640 -12.86  16
         6    745.4030      4.2748 300.4120470 +22.6128653     622.0475     69.34114      1.449     3.29     6.410925     20.30611     84.26038        13     1.077     0.809  44.38  16
         7    307.8083      4.4145 300.2757123 +22.4819544     263.9471     69.81524      2.156     4.26     5.488502     20.30611     28.76658         5     1.131     0.457 -58.05  16
         8    177.2747      3.4953 300.2354053 +22.4426059     3857.067     66.74258      1.670     3.23     5.358774     20.30611      436.756        34     1.387     1.209  30.61  24
         9    503.5531      1.4221 300.3376145 +22.5396856     201.2872     56.57795      1.147     3.28     5.228658     20.30611     50.19189         6     1.026     0.477  -8.22  24
        10    243.5839    973.5562 299.9412106 +22.7407780     8051.127     71.99255     10.342    36.65     39.41318     20.30611     165.5721       885    12.023     5.039  65.38  18
        11     91.6729   1012.2501 299.8813975 +22.7062782     5278.044     71.99255     19.981   108.81     82.05385     20.30611     158.1792      2611    22.515    17.471  60.92  27
        12     83.7465    951.1595 299.8988000 +22.6863979      7379.32     71.93754     32.242   121.37     26.69457     20.30611     1359.387      4826    23.727    17.226 -64.78  19
        13    932.0762    970.7622 300.1565712 +22.9464018     585.3733     71.93754      1.877     7.95     4.167591     20.30611     46.39931        18     1.597     1.105  -6.39   0
        14    151.3186    955.6765 299.9183352 +22.7079699       2108.2     72.08413      7.440    16.97      45.4091     20.30611     55.82328        76     2.874     2.785  34.82   3
        15    299.0042   1013.0043 299.9456196 +22.7687110      690.052      71.8274      1.934     4.94      6.22657     20.30611     46.57138         9     1.265     0.546  45.13   3
        16    657.5217    953.7379 300.0765113 +22.8592357     6920.408     72.04751      2.015     4.57     4.314796     20.30611     350.8676        48     1.574     1.469  26.10   0
        17    153.5635   1007.6879 299.9021193 +22.7235461     584.2286     71.95588      2.536     6.16     91.17672     20.30611     34.95424         8     1.148     0.931 -26.66   0
        18    145.3404    955.6446 299.9164871 +22.7061669      865.366     71.99255      3.183     3.37     44.44949     20.30611     43.00063         5     1.087     0.303  53.49   3
        19    644.7009    984.5687 300.0624902 +22.8642359     9621.114     71.95588      2.058     5.06     4.070202     20.30611     518.9619        49     1.549     1.513  64.59   3
        20    538.0365    948.2619 300.0410729 +22.8218430     529.9453     71.99255      2.091     5.76     4.406583     20.30611     40.32377         8     1.260     0.740 -20.06   0
        21    184.6585    999.0610 299.9145925 +22.7304058     1006.876     72.02919      3.125     9.88     81.30991     20.30611     56.21165        19     2.873     0.948  77.37   3
        22    565.0000    944.9869 300.0505352 +22.8289881     1068.813     71.77227      1.706     5.49     4.427655     20.30611     74.15931        16     1.508     0.800  81.84   3
        23    567.0000    944.1023 300.0514457 +22.8293341       1013.1     71.84577      1.536     3.60     4.432038     20.30611     113.0237        12     1.312     0.737  88.60   3
        24    459.6284    940.9781 300.0190282 +22.7962428     912.3864     71.97421      1.870     5.07     4.232935     20.30611     71.91003        22     1.303     1.206  34.62   0
        25    390.3197    938.7896 299.9981668 +22.7748295     6551.261     71.95588      1.935     4.54     4.539373     20.30611     422.5814        45     1.511     1.451  -2.40   0
        26    178.5293    992.0557 299.9149650 +22.7265593     2200.884     71.99255      7.192    17.42      75.8567     20.30611     55.74333        68     3.160     2.670  39.32   3
        27    739.0233    987.0171 300.0910869 +22.8932131     610.7116     71.97421      1.903     8.09     3.949372     20.30611      37.9871        16     1.802     1.014  44.06   0
        28      4.2546   1021.6876 299.8511641 +22.6827409     2988.472     63.08374      5.960    25.57    -36.62114     20.30611     68.52353       146     8.465     2.145   0.26  27
        29    422.7313    925.7653 300.0124892 +22.7808158     606.1837     71.97421      2.321     7.41     4.385341     20.30611     50.40725        11     1.561     0.985   7.58   0
        30    936.7443    917.7373 300.1752710 +22.9325801     2351.044     72.02919      2.123     4.87     4.373628     20.30611     124.4912        37     1.582     1.403 -19.37   0
        31    586.9008    915.0099 300.0671037 +22.8269560     414.5291     71.88249      1.762     5.12     4.524996     20.30611      37.0759         5     1.159     0.640  15.88   0
        32      3.7637   1012.6804 299.8539410 +22.6800138     3263.736     67.60686     25.001    73.51    -32.84989     20.30611     71.34769       756    19.115     7.844 -80.03  26
        33    724.9081    906.5804 300.1128444 +22.8659044     720.6741     71.90085      2.014     6.67     4.487747     20.30611     46.87668        15     1.310     1.021 -20.45   0
        34    219.4454    905.2073 299.9559269 +22.7139471     724.7178     71.99255      4.775     5.14      10.4707     20.30611     29.51028         5     1.053     0.710  -9.60   0
        35    760.4448    901.0153 300.1257305 +22.8749573     1011.136     71.99255      1.854     4.89      4.50222     20.30611     60.52967        20     1.238     1.158  22.17   0
        36    537.2989    901.8497 300.0559339 +22.8083106     463.9866     72.04751      1.948     4.94     4.588573     20.30611     42.45457         7     1.264     0.546 -32.50   0
        37    782.6516    894.5020 300.1347708 +22.8797428     11425.32     72.04751      1.917     4.51     4.514985     20.30611     660.6136        57     1.550     1.469 -14.69   0
        38    176.5081    999.2795 299.9119873 +22.7280225     2216.545     72.08413      5.008    18.13     82.26451     20.30611     68.47196        86     5.086     1.795  41.60  19
        39    972.7802    894.9255 300.1939309 +22.9368261     538.5504     71.97421      2.669     4.53     4.347889     20.30611     35.04623         6     0.966     0.603  28.80   2
        40    828.0079    894.5576 300.1488941 +22.8933493      456.209     71.99255      2.092     5.71     4.510561     20.30611     32.63155         7     1.452     0.633  29.66   0
        41    168.6355    964.8394 299.9207395 +22.7157918      530.463     72.04751      3.456     4.99     53.57574     20.30611      40.1521         5     1.127     0.626 -63.76   3
        42    149.3964    891.1456 299.9387176 +22.6889011     690.0453     71.93754      5.492     4.46     13.54137     20.30611     34.73896         5     1.043     0.630  26.18   0
        43    170.6382    969.5005 299.9198464 +22.7177284     1131.597     71.99255     17.606    14.96     57.64164     20.30611     50.47216        33     4.573     1.361  45.27   3
        44     93.7868    886.1593 299.9230524 +22.6707865     1245.513     71.99255      5.563     6.84     8.358668     20.30611     51.71886        20     1.492     1.128  -8.00   0
        45    488.6052    883.1458 300.0468521 +22.7883469     493.5687     71.97421      1.767     4.51     4.567775     20.30611     47.41937         7     1.036     0.559  64.85   0
        46    834.0866    882.7045 300.1546432 +22.8917687     436.0327     72.15731      1.678     6.19      4.51334     20.30611     34.75249         9     1.085     0.993 -28.88   0
        47     64.4677    878.7256 299.9163567 +22.6598586     359.4678     72.04751      1.915     4.39     6.520495     20.30611     37.54415         5     0.921     0.595  40.52   0
        48    791.2285    876.7366 300.1432204 +22.8772144      1372.17     71.97421      1.780     4.60     4.526208     20.30611     88.36903        21     1.236     1.184  69.63   0
        49    171.4163    977.4338 299.9175086 +22.7202351     1680.015     71.95588      3.908     9.68      63.7579     20.30611     52.40258        28     1.981     1.321  76.64   3
        50    975.8020    876.2188 300.2009556 +22.9323606     453.3889     71.90085      1.734     3.90     4.374499     20.30611     25.31052         5     0.955     0.456 -45.49   0
        51    507.2122    874.8843 300.0553313 +22.7915562     180.1162      71.9192      1.189     3.96     4.601323     20.30611      29.2085         6     0.779     0.576 -47.65   0
        52    829.2012    869.7959 300.1573163 +22.8865999     930.2327     71.79066      2.023     4.98     4.521461     20.30611     58.75561        16     1.333     0.894 -67.31   0
        53    877.2654    861.2221 300.1750924 +22.8985386     632.9964     71.95588      1.921     6.33     4.506581     20.30611     33.83035        13     1.255     0.897  57.61   0
        54    729.0760    860.1823 300.1292275 +22.8538395     757.2876     71.97421      1.715     5.89     4.520754     20.30611     61.81044        15     1.451     0.885  35.22   0
        55    740.7340    857.3969 300.1337667 +22.8565336     679.5809     71.97421      1.780     4.94     4.537323     20.30611     67.95356        16     1.514     0.829 -24.74   0
        56    441.5598    856.4360 300.0408884 +22.7665809     4214.239     72.04751      1.811     4.06     4.714772     20.30611     299.6724        39     1.403     1.368  59.28   0
        57    485.7292    844.7849 300.0584263 +22.7764823     301.8692     71.97421      1.766     3.21      4.78237     20.30611     43.95353         5     1.060     0.481 -32.21   0
        58    219.5590    843.8267 299.9759143 +22.6963872     297.2012     72.02919      1.637     3.63     5.999172     20.30611     30.07098         5     1.028     0.370  -4.78   0
        59    167.2193    842.2714 299.9601448 +22.6802406     818.5082     72.01087      1.815     4.87     7.231721     20.30611      72.2044        11     1.230     0.748 -40.06   0
        60    172.9743    973.9891 299.9191131 +22.7197156      1259.84     71.97421      4.359     5.74     60.85078     20.30611     53.40347        12     1.242     0.833  24.06   3
        61    144.0325    838.8469 299.9540491 +22.6723030     1614.795     72.01087      2.020     4.64     6.957456     20.30611     125.4389        31     1.484     1.398 -34.82   0
        62   1015.8192    828.6201 300.2289159 +22.9306782     2155.677     71.97421      2.049     5.03     4.775775     20.30611     117.9365        34     1.514     1.422  86.75  16
        63     19.6166    829.1610 299.9185289 +22.6321977     301.7033     71.99255      1.338     3.52     4.894383     20.30611     35.34969         5     0.788     0.454 -74.26   0
        64    970.0037    826.9617 300.2151586 +22.9164810     2194.784     72.01087      2.053     4.81     4.646984     20.30611     131.0435        32     1.510     1.313 -21.56   0
        65    674.8681    827.1680 300.1230651 +22.8281210     461.8375     71.97421      1.805     4.48     4.508545     20.30611     39.82982         6     0.823     0.692 -72.04   0
        66    753.5584    820.8508 300.1496431 +22.8498879      479.246     71.97421      1.691     6.36     4.661131     20.30611     44.23459        13     1.200     0.947  10.71   0
        67    621.6754    814.6830 300.1105494 +22.8085971     4936.536     72.08413      1.731     4.07     4.562418     20.30611     364.3845        34     1.327     1.255   4.86   0
        68     20.2677    979.2415 299.8699430 +22.6753902      717.275     71.95588      3.993     4.30    -5.416736     20.30611     33.01069         5     0.998     0.529 -38.27   1
        69    424.0395    811.7820 300.0499480 +22.7485211     650.6506     71.99255      1.639     4.20     5.090829     20.30611     60.05395        14     1.216     0.780 -18.35   0
        70    171.8026    808.3911 299.9725805 +22.6719040      1434.81     71.79066      1.890     4.54     5.753586     20.30611     119.9662        25     1.326     1.288 -76.79   0
        71    642.3162    806.9583 300.1194906 +22.8125666     777.6513     71.93754      1.674     4.37     4.551395     20.30611     59.55577        14     1.095     0.941  -1.48   0
        72    225.6609    984.3851 299.9321151 +22.7385037     5189.131     71.93754      9.701    39.86     61.78424     20.30611     94.18356       471     8.561     5.150 -56.92  19
        73   1015.0076    794.8884 300.2396261 +22.9207482      1204.76     71.88249      2.034     6.03     5.083253     20.30611     68.97589        23     1.435     1.226  46.92  16
        74    797.8548    794.5933 300.1719862 +22.8556226     4070.933     71.97421      1.698     3.88     4.780172     20.30611     288.5705        35     1.316     1.281 -24.40   0
        75    206.1337    788.4026 299.9897508 +22.6764717     371.2794     71.97421      1.428     5.99     5.335173     20.30611     36.47203        11     1.183     0.852  60.44   0
        76    514.7244    786.8240 300.0862915 +22.7685481     600.6263     71.99255      1.658     3.65     5.038252     20.30611      60.3239        13     0.991     0.915 -30.62   0
        77    161.0076    784.4980 299.9769881 +22.6618168     1012.815     71.84577      1.920     6.02     5.483876     20.30611     72.70803        22     1.346     1.260 -50.71   0
        78    576.2523    780.3787 300.1075479 +22.7851407     465.4152     71.97421      1.573     5.84     4.844404     20.30611      40.3436        13     1.044     0.965  10.94   0
        79    310.6909    776.8357 300.0260310 +22.7045121     53642.12     71.93754      1.770     3.78     5.307291     20.30611     4233.146        98     1.520     1.502  -4.38   0
        80    981.5806    775.5839 300.2354687 +22.9051944     940.5539     71.95588      1.846     6.13     4.995483     20.30611     69.35593        19     1.393     1.116  -8.65   0
        81    568.7148    776.0245 300.1066150 +22.7816323     1671.181     71.93754      1.603     3.53     4.901628     20.30611     147.2411        23     1.181     1.122 -58.71   0
        82    238.5385    775.0541 300.0041658 +22.6823636     474.3073     72.02919      1.850     6.19     5.296409     20.30611     44.39741        10     1.423     0.784 -24.48   0
        83    597.7957    772.0907 300.1169516 +22.7892192     885.4844     71.88249      1.620     4.51     4.800854     20.30611     73.50565        17     1.213     1.014  21.81   0
        84    608.5638    770.3774 300.1208628 +22.7919546     605.3119     71.99255      1.765     4.75     4.762105     20.30611     50.57972        15     1.226     1.063   7.08   0
        85    929.7889    768.1965 300.2217105 +22.8875628     360.3662     71.79066      2.491     3.81     5.014454     20.30611      24.5574         5     0.954     0.438 -44.66   0
        86    713.6908    766.6345 300.1548359 +22.8223819     531.8156     71.95588      1.694     5.37     4.893424     20.30611     60.77482        10     1.062     0.766  25.94   0
        87    508.7086    764.8096 300.0915716 +22.7604292     281.6868      71.9192      1.478     3.71     5.194524     20.30611     33.85697         5     1.019     0.388  -3.59   0
        88    751.4992    756.8322 300.1698056 +22.8308958     865.8206     71.95588      1.804     5.13     5.075943     20.30611     65.91241        19     1.339     1.106  86.54   0
        89    360.4190    754.1099 300.0488879 +22.7129054     31681.02     71.90085      1.711     3.41     5.417433     20.30611     2845.767        70     1.437     1.384  13.01   0
        90    374.9281    754.6841 300.0532164 +22.7174202     2121.454     72.08413      1.704     3.49     5.391652     20.30611      184.184        27     1.287     1.153   4.78   0
        91    883.7013    750.2574 300.2131637 +22.8686088     2807.707     72.06582      1.779     3.92      5.28093     20.30611     198.7936        29     1.319     1.233  -7.10   0
        92    371.7048    748.6520 300.0541731 +22.7147237     579.3548     72.04751      1.495     4.01     5.418196     20.30611      56.4462         9     1.164     0.586 -34.61   0
        93    641.5236    746.3434 300.1389405 +22.7949346     1000.513     72.01087      1.528     3.59     4.869657     20.30611     93.42209        18     1.160     0.990  48.34   0
        94    243.1903    746.1371 300.0150078 +22.6754674      895.174     71.90085      1.712     3.97     5.358501     20.30611     78.88918        16     1.240     0.905  -3.90   0
        95    477.7769    746.1086 300.0880168 +22.7457925     318.8631     71.90085      1.676     4.67     5.348527     20.30611     40.06822         5     1.014     0.610  18.15   0
        96     48.0991    741.5946 299.9558316 +22.6156486     554.8355     71.86414      1.815     3.90     5.164342     20.30611     59.74076        10     1.034     0.775  73.45   0
        97    488.7153    740.8599 300.0931277 +22.7475654     704.9559     72.08413      1.517     3.23      5.35954     20.30611     90.47379        15     1.058     0.936   9.93   0
        98    889.3909    738.3592 300.2188042 +22.8668963     492.1107     71.97421      1.659     5.38     5.422203     20.30611       50.029        13     1.168     1.037 -35.49   0
        99    637.0601    737.8897 300.1402964 +22.7911710     366.9711     72.06582      1.858     5.76     4.916953     20.30611     37.28424         7     1.420     0.658 -40.53   0
       100    390.4026    737.2043 300.0637114 +22.7170459     319.1101     71.79066      1.401     4.81     5.431367     20.30611     33.61241         7     1.029     0.638  -2.53   0
       101    434.5229    735.7224 300.0779255 +22.7298472      378.763     72.08413      1.345     3.45     5.386143     20.30611     48.44912         7     0.941     0.541 -29.12   0
       102     76.4203    735.3095 299.9666749 +22.6223432     503.7385      71.9192      1.681     5.97     5.305279     20.30611     44.01863         9     1.318     0.761 -31.03   0
       103    867.6683    733.4106 300.2136370 +22.8589695     420.9809     71.97421      1.743     4.15      5.43486     20.30611     30.45239         7     1.047     0.470   8.95   0
       104    240.7591    730.0563 300.0194759 +22.6701272     495.9164     71.95588      1.910     5.56     5.370261     20.30611     45.85357        11     1.343     0.938  -4.03   0
       105    563.8098    720.9100 300.1229944 +22.7643478     443.8998      71.9192      1.559     5.22     5.264241     20.30611     55.42331         9     1.008     0.765  23.49   0
       106    533.6963    718.9080 300.1142662 +22.7547486      681.124     72.15731      1.578     3.94     5.377231     20.30611     63.93221        13     1.028     0.918  32.52   0
       107    950.1506    715.6724 300.2451291 +22.8785767     4479.247     71.95588      1.753     3.92     5.402638     20.30611     326.0681        37     1.388     1.308  -1.23   0
       108    442.7590    718.2233 300.0861743 +22.7272961     325.5509     72.01087      1.379     3.81     5.412798     20.30611     41.19866         6     0.802     0.519 -44.27   0
       109    555.5034    716.4301 300.1218627 +22.7605730     1364.251      71.9192      1.633     3.37     5.321065     20.30611     140.3647        18     1.095     1.027 -85.99   0
       110    475.1030    716.0916 300.0969362 +22.7363793     409.8286     72.15731      1.558     5.94     5.413569     20.30611     38.68776         9     1.134     0.876 -30.10   0
       111    938.6512    707.0427 300.2443450 +22.8726548     1635.068     72.01087      1.746     4.49     5.463211     20.30611     117.3164        26     1.384     1.190 -28.90   0
       112    301.5361    700.7244 300.0479097 +22.6799396     781.0502     72.02919      1.463     2.99     5.384198     20.30611     97.93879        12     0.987     0.805 -39.49   0
       113    166.7517    700.6987 300.0059982 +22.6395152     318.8683     72.01087      1.752     5.77     5.373581     20.30611     32.30484         6     1.208     0.777  33.74   0
       114    764.8804    698.2560 300.1930078 +22.8180887     2548.686     72.01087      1.621     3.40     5.298769     20.30611     218.8862        27     1.304     1.102   6.20   0
       115    969.7609    697.2195 300.2572424 +22.8791487     1724.361     72.01087      1.861     4.26     5.442049     20.30611     114.9597        25     1.330     1.179  30.28   0
       116    847.0352    684.5770 300.2230668 +22.8387675     636.9593     71.99255      1.645     4.57     5.421958     20.30611     47.39488        12     1.182     0.793  -4.28   0
       117    150.3105    684.3221 300.0062056 +22.6298889     649.4989     72.10243      1.613     4.17      5.40032     20.30611     76.43429        14     1.201     1.028   0.63   0
       118    883.3492    675.2111 300.2374347 +22.8469529     149512.8     72.01087      1.700     3.43     5.469347     20.30611     12318.99       158     1.545     1.496 -38.97   0
       119    645.5563    678.9389 300.1620942 +22.7767970     391.4883     71.97421      1.493     4.64     5.226118     20.30611     41.19451         8     0.852     0.717  -3.92   0
       120    735.7284    675.5293 300.1913029 +22.8028316     621.5854     72.04751      1.349     3.14     5.271668     20.30611     77.91924        10     0.930     0.731 -26.42   0
       121    916.6925    668.3523 300.2500632 +22.8549675     385.7165     71.99255      1.584     4.57     5.532561     20.30611     34.31843         7     0.918     0.647  22.63   0
       122    569.5484    663.9649 300.1432794 +22.7497255     1629.694     71.99255      1.520     3.17     5.414874     20.30611     184.3257        20     1.170     0.985   3.59   0
       123    750.8155    661.2673 300.2006382 +22.8032561      9734.55     71.97421      1.578     3.20     5.320459     20.30611     894.9859        45     1.329     1.243 -54.67   0
       124    252.2017    656.0905 300.0470599 +22.6523467     4897.216     71.90085      1.637     3.16     5.328725     20.30611     497.9872        36     1.336     1.220  13.28   0
       125    334.3302    654.5043 300.0731251 +22.6765140       1167.7     72.10243      1.567     3.21     5.442343     20.30611     122.1816        17     1.131     0.944   6.53   0
       126    209.8796    652.0560 300.0352074 +22.6384999     480.7144     72.01087      1.630     5.34     5.336901     20.30611     37.19659        10     1.068     0.757  -7.15   0
       127    542.6852    650.0729 300.1394245 +22.7376892     704.5356     72.08413      1.490     3.15     5.480727     20.30611     82.58569        12     0.952     0.862 -12.68   0
       128    534.2305    641.9410 300.1394324 +22.7328220     3266.888     71.99255      1.543     3.22      5.47601     20.30611      315.242        29     1.192     1.137  21.02   0
       129    524.4299    635.8077 300.1383721 +22.7281250     1506.169     71.97421      1.574     2.95     5.466387     20.30611      181.262        19     1.110     1.019 -42.24   0
       130    452.9974    635.5270 300.1162216 +22.7066381     334.1195     71.88249      1.496     3.78     5.423775     20.30611     35.45043         6     0.828     0.496  -4.70   0
       131    918.1591    633.6425 300.2617942 +22.8454371     527.1046     72.06582      1.931     5.62     5.562141     20.30611     36.58664         9     1.078     0.825  33.42   0
       132    187.8014    631.9283 300.0348780 +22.6261076      765.885     71.88249      1.802     4.94     5.365726     20.30611     62.85913        14     1.283     0.891 -48.88   0
       133    201.9538    630.5963 300.0397114 +22.6299691     680.8016     71.95588      1.762     3.64     5.360275     20.30611     60.34998        14     1.213     0.818 -14.57   0
       134    971.7990    627.2626 300.2806012 +22.8596637     647.3493     71.95588      1.688     5.22     5.585959     20.30611     45.70308        13     1.134     0.984  -1.21   0
       135    227.9558    627.2740 300.0488767 +22.6368125     542.5668     71.95588      1.580     3.59     5.354772     20.30611     55.83084        10     0.932     0.797 -34.50   0
       136    548.5983    626.0030 300.1490830 +22.7325529     546.0371     71.75388      1.825     4.32     5.489949     20.30611     62.64666        12     1.239     1.015 -64.62   0
       137    449.1717    625.3976 300.1183200 +22.7025850     1676.284      71.9192      1.457     2.92     5.408038     20.30611     182.3918        22     1.106     1.081 -17.95   0
       138   1024.0000    623.0789 300.2982499 +22.8740883     232.9679     53.95163      1.156     3.59     5.594075     20.30611     66.53155         5     1.287     0.289  90.00  24
       139    103.1701    620.1777 300.0123818 +22.5973596     19978.21     71.95588      1.793     3.38     5.518911     20.30611     1902.108        68     1.516     1.454   2.24   0
       140     24.5866    622.3641 299.9872492 +22.5744181     764.1177     71.97421      2.022     3.89     5.533512     20.30611     87.08672        10     1.133     0.666 -27.22   2
       141    534.2382    620.7249 300.1463247 +22.7267353     1099.719      71.9192      1.535     3.80     5.479024     20.30611     108.9708        18     1.198     0.987 -89.30   0
       142    415.8817    614.8663 300.1113769 +22.6895863     1255.371     72.08413      0.472    -0.48     5.395458     20.30611     974.7764         5     0.388     0.323 -86.19   0
       143    588.4243    613.4001 300.1655804 +22.7408680     360.8334     71.90085      1.786     3.88      5.49127     20.30611      28.2611         5     1.061     0.407  16.15   0
       144    618.0742    608.7910 300.1763138 +22.7484277     174.8449     71.97421      1.214     4.01     5.500694     20.30611     30.72688         6     0.917     0.501 -35.41   0
       145    952.1464    607.3401 300.2809392 +22.8480571     1137.416     72.02919      1.634     3.33      5.58363     20.30611     108.8561        20     1.194     1.045 -44.94   0
       146    818.7787    605.2986 300.2400037 +22.8075389     462.8516     71.90085      1.466     4.60     5.440052     20.30611     55.40135         9     1.087     0.727  67.75   0
       147     49.4874    604.2253 300.0008766 +22.5766862      1522.37      71.9192      2.029     5.35      5.54289     20.30611     101.9678        28     1.649     1.174 -85.19   0
       148    116.1776    604.6649 300.0214621 +22.5968122     326.3506     71.95588      0.999     3.38     5.478192     20.30611     41.26654         5     1.165     0.284  55.73   0
       149    497.3422    601.2188 300.1411691 +22.7100815     585.6376     71.93754      1.535     3.84     5.436967     20.30611       60.155        11     1.128     0.710  34.35   0
       150    890.9727    599.7047 300.2643351 +22.8275491     935.1988     71.88249      2.375     9.29     5.531624     20.30611     57.21825        23     2.359     1.021   7.83   0
       151    290.6469    600.2021 300.0771674 +22.6478418     310.4122     71.97421      1.424     4.95     5.341321     20.30611     35.83025         9     0.909     0.765 -16.44   0
       152    636.9731    598.2567 300.1856225 +22.7510651     382.8228     71.97421      1.961     4.49     5.568444     20.30611      41.8434         6     0.977     0.587  23.55   0
       153    602.0627    592.7046 300.1765491 +22.7390132     480.0145     72.06582      1.523     5.00     5.610187     20.30611     47.94088        10     1.166     0.729 -29.11   0
       154    454.3527    593.6551 300.1302401 +22.6950288     865.7978     72.01087      1.739     2.97     5.392859     20.30611     87.33673        15     1.019     0.914  43.08   0
       155    649.7746    590.8533 300.1920151 +22.7527744     496.0786     71.99255      1.476     2.97      5.60584     20.30611     60.50058         8     0.951     0.605  82.75   0
       156    619.8186    590.5298 300.1827868 +22.7437080     514.3837     72.01087      1.334     2.85     5.619035     20.30611     75.28373        10     0.841     0.813 -20.92   0
       157    498.4403    589.6140 300.1452790 +22.7070801      967.066     71.99255      1.792     4.41     5.472398     20.30611     89.68296        17     1.246     1.072   0.73   0
       158    932.3775    585.2024 300.2819602 +22.8357793      3310.28      71.9192      1.651     3.37     5.493862     20.30611      286.665        31     1.265     1.240 -54.40   0
       159    464.0589    584.9196 300.1360982 +22.6954305     1785.328     72.04751      1.452     3.05     5.407189     20.30611      188.991        23     1.118     1.062 -15.72   0
       160    829.5220    582.7418 300.2506782 +22.8042775     395.9192     72.01087      1.495     2.43     5.419457     20.30611      45.0361         5     0.693     0.484  75.45   0
       161    801.3632    582.1648 300.2420852 +22.7956799     159.0312     72.04751      1.225     3.37      5.38691     20.30611     32.80192         5     0.777     0.424  69.52   0
       162    814.5124    581.3721 300.2464426 +22.7993897     219.5967     71.97421      1.072     4.04     5.400363     20.30611     35.51037         6     0.971     0.481   3.00   0
       163     25.9906    578.2945 300.0019936 +22.5622045     5131.617      71.9192      1.890     3.63     5.659707     20.30611       532.65        41     1.436     1.414  30.16   0
       164    493.4365    575.7139 300.1482340 +22.7015913     323.6903     71.95588      1.501     3.83     5.491779     20.30611     51.26252         9     1.125     0.587  -9.41   0
       165    971.9769    575.6480 300.2974176 +22.8448886     317.0166     71.99255      1.546     3.85     5.520008     20.30611     36.29369         5     0.899     0.472   5.44   0
       166    327.4355    571.6418 300.0978860 +22.6506756     9250.742     72.02919      1.555     2.83     5.365659     20.30611     1151.138        40     1.248     1.214  60.84   0
       167    449.9173    568.7413 300.1369481 +22.6865500     8983.159     72.04751      1.482     2.85     5.400304     20.30611     1021.564        43     1.258     1.192  87.08   0
       168     88.4357    571.1818 300.0237094 +22.5788918     250.3618     71.97421      1.311     3.45     5.463332     20.30611     27.76626         5     0.781     0.440  69.29   0
       169    861.6495    562.9873 300.2671113 +22.8082229     1958.026     72.02919      1.590     3.18     5.387298     20.30611     173.8918        25     1.190     1.143  74.39   0
       170    946.3559    560.3080 300.2944042 +22.8328119     12605.08     71.95588      1.666     3.33     5.426265     20.30611     1144.536        49     1.383     1.310 -45.40   0
       171    510.5186    558.3114 300.1592030 +22.7017146     11782.25     72.08413      1.472     2.73     5.646126     20.30611     1396.008        45     1.219     1.215  20.45   0
       172    680.1627    554.5149 300.2132825 +22.7514430     626.7928     71.95588      1.529     3.07      5.74409     20.30611     57.74677         8     0.804     0.716  -7.48   0
       173    237.9385    553.7491 300.0758530 +22.6187158     1338.205     72.02919      1.560     3.03     5.310942     20.30611     152.9054        21     1.184     1.030  50.62   0
       174    395.9089    553.5714 300.1250612 +22.6660122     313.3608     71.93754      1.407     5.21     5.339759     20.30611     32.06349         7     1.166     0.657 -39.98   0
       175    484.9689    551.1729 300.1535647 +22.6920106     456.5301     71.97421      1.480     5.19     5.503979     20.30611     48.41666        10     1.122     0.678  81.11   0
       176    442.1621    546.4935 300.1417564 +22.6778413     4609.851     71.97421      1.498     2.70     5.389584     20.30611     502.7197        34     1.207     1.179 -34.07   0
       177    785.2101    546.7946 300.2485325 +22.7806845     909.0833      71.8274      1.523     3.41     5.373234     20.30611     94.38947        18     1.166     1.005 -24.33   0
       178    420.4123    544.8911 300.1355060 +22.6708641     1259.753      71.9192      1.515     2.89     5.334547     20.30611     169.6924        19     1.141     0.988  71.00   0
       179    174.8580    544.1310 300.0593580 +22.5970462     873.6813     71.99255      1.894     4.16     5.299403     20.30611     77.01653        15     1.099     1.034 -52.84   0
       180    861.9691    542.2177 300.2739540 +22.8023524     1555.635     71.95588      1.576     3.16     5.327392     20.30611     154.0974        24     1.211     1.166 -75.68   0
       181    108.0264    542.1453 300.0392247 +22.5764393     474.8881     71.97421      2.155     4.90     5.350177     20.30611      48.1441         6     1.298     0.548 -12.14   0
       182    558.7993    534.0762 300.1821068 +22.7092222     206662.2     71.86414      1.442     2.96     5.939299     20.30611     22296.13       200     1.513     1.413 -20.31   0
       183    382.7819    540.5295 300.1252093 +22.6583359     403.8238     72.01087      1.386     3.19     5.326126     20.30611     60.03932         6     0.868     0.681  -3.88   0
       184    742.6354    539.3123 300.2376890 +22.7657868     837.9385     71.95588      1.441     3.02     5.408165     20.30611     96.24662        13     1.031     0.810 -26.15   0
       185    836.6384    537.4089 300.2676154 +22.7933873     347.3932     71.99255      1.580     3.50     5.340816     20.30611     42.32466         5     0.763     0.463 -15.75   0
       186    244.9002    533.9219 300.0844544 +22.6151148     3517.451     72.10243      1.559     3.15     5.312474     20.30611     361.8658        33     1.297     1.193  27.85   0
       187    424.5489    530.5233 300.1414576 +22.6679802     384.1142     71.97421      1.112     3.75     5.352268     20.30611     39.89965         6     0.924     0.437  73.03   0
       188    811.0926    530.2925 300.2619597 +22.7836946     523.5109     72.13902      1.663     4.90     5.352035     20.30611     44.37642         9     1.103     0.616  -1.82   0
       189    830.0696    528.6594 300.2684073 +22.7889073     260.0559     72.01087      2.235     4.61     5.343784     20.30611     36.20612         5     1.146     0.604 -48.95   0
       190    449.4084    514.6731 300.1543414 +22.6708798     2887.448     71.95588      1.638     2.79     5.472081     20.30611     293.6458        35     1.712     1.055 -84.47   0
       191    293.9147    516.6785 300.1052986 +22.6248590     380.5662     72.10243      1.762     5.21     5.301636     20.30611     35.82054         7     1.070     0.718 -39.35   0
       192    899.7519    515.1495 300.2945257 +22.8058871     126.8664     72.01087      1.198     3.99     5.343294     20.30611      40.6088         6     1.282     0.355   1.40   0
       193    861.1878    511.1716 300.2837886 +22.7931999     415.8723     71.97421      1.399     4.05     5.334522     20.30611     34.57032         6     0.806     0.581  42.07   0
       194    766.7988    502.9644 300.2570205 +22.7625829     431.4926     71.93754      1.515     5.33      5.40638     20.30611     43.27369         9     1.013     0.791  59.22   0
       195    846.4810    500.6868 300.2826052 +22.7857850     1659.048     72.10243      1.486     2.87     5.339289     20.30611     194.4194        22     1.181     1.002  75.75   0
       196     77.3391    499.0704 300.0436669 +22.5548846     351.1278     72.01087      1.599     5.03     5.387627     20.30611     36.04935         7     1.351     0.530 -47.71   0
       197    717.7596    498.2828 300.2432536 +22.7465543     2616.316     71.93754      1.417     2.60     5.589662     20.30611     308.8833        24     1.101     1.060  27.34   0
       198    962.0319    496.0432 300.3201573 +22.8190390      483.489     72.02919      1.525     5.96      5.44593     20.30611     38.47569        10     1.124     0.888 -13.21   2
       199    960.5493    491.6090 300.3211340 +22.8173211     772.3341     71.97421      1.685     3.81     5.445429     20.30611     82.53641        14     1.212     0.917 -83.08   2
       200    927.1707    495.5392 300.3094444 +22.8084600     320.5685     72.01087      1.554     4.12     5.368486     20.30611     38.98217         7     0.996     0.624  21.62   0
       201    622.8004    495.0539 300.2147102 +22.7171891     493.9143      71.9192      1.608     5.12       5.9622     20.30611      46.9613         9     1.045     0.762 -37.53   0
       202    504.8611    494.0719 300.1782936 +22.6815798     774.6054     72.01087      1.466     3.32     5.798404     20.30611     76.37301        12     1.050     0.738  13.19   0
       203    975.0416    492.3650 300.3254106 +22.8218757     1409.851     72.02919      1.652     3.41     5.477061     20.30611     140.7469        20     1.136     1.074  76.16   0
       204    846.8205    490.8260 300.2859117 +22.7830539     2309.895     71.95588      1.768     3.93     5.340008     20.30611     230.9106        29     1.545     1.129  74.37   0
       205    600.1318    488.9180 300.2096395 +22.7086378     674.2233     72.08413      1.613     2.78     5.979494     20.30611     83.14453        10     0.911     0.781  47.28   2
       206    385.8983    489.0006 300.1429044 +22.6444820     295.2535     71.84577      1.214     3.70     5.314368     20.30611     43.10041         7     0.838     0.672  17.22   0
       207    884.8862    485.9482 300.2993671 +22.7930474     4124.729     71.99255      1.476     2.98     5.351822     20.30611     427.9235        29     1.176     1.143 -86.06   0
       208    438.3519    487.3214 300.1597767 +22.6597165     398.9954     71.97421      1.329     3.86     5.457451     20.30611     57.85174         5     0.913     0.468  44.54   0
       209    545.7192    481.9931 300.1949380 +22.6903515     314.0771     71.90085      1.304     2.00     5.928888     20.30611     65.40533         5     0.733     0.455 -32.67   0
       210    976.8616    476.3115 300.3311890 +22.8178071     755.4009     72.04751      1.625     3.66     5.492503     20.30611      89.0706        12     1.124     0.809  77.70   0
       211    116.9840    475.7328 300.0635638 +22.5600770     1011.618     71.97421      1.655     4.22     5.366962     20.30611     99.34715        19     1.332     1.065  74.73   0
       212    916.5526    473.6171 300.3132471 +22.7989828     227.6938     72.01087      1.192     3.27     5.386853     20.30611     41.99078         5     1.022     0.304 -22.89   0
       213    778.0154    470.0580 300.2711976 +22.7564891     311.6651     71.95588      1.438     2.65     5.392838     20.30611     42.97485         5     0.617     0.593 -88.23   0
       214    110.1629    465.8885 300.0646378 +22.5552084     409.2085     71.95588      1.512     3.87     5.387251     20.30611     44.76025         6     0.765     0.564 -47.34   0
       215    716.8401    460.2841 300.2552995 +22.7353653     349.0648     71.93754      1.295     4.41     5.607996     20.30611      54.6189         7     0.959     0.686  69.57   0
       216    326.0556    458.5887 300.1341510 +22.6178223      329.292     71.95588      2.220     3.92     5.320705     20.30611     28.92625         5     0.898     0.491  -2.87   0
       217    658.2051    456.1472 300.2383685 +22.7166194     755.0461     71.95588      1.355     3.32     5.899455     20.30611     82.09479        14     1.113     0.794  36.55   0
       218     18.1114    450.0039 300.0411826 +22.5230543     326.1954     71.88249      1.597     5.47     5.554682     20.30611     29.40716         7     1.521     0.554 -21.21   0
       219    972.9615    448.7950 300.3389022 +22.8087321     578.6902     71.99255      1.474     3.65     5.530162     20.30611     61.90339        13     0.995     0.927  31.38   0
       220    719.1474    448.4763 300.2598504 +22.7326646     811.4252     71.97421      1.371     3.36     5.591496     20.30611     123.4009        16     1.184     0.888 -57.19   0
       221    876.5115    444.9060 300.3100748 +22.7787483     1067.641     72.15731      1.550     3.23     5.380915     20.30611     114.9724        18     1.196     1.000  47.50   0
       222    841.4269    441.6686 300.3001831 +22.7673164     367.8461     71.95588      1.605     3.44     5.356977     20.30611       41.896         7     0.877     0.776 -34.62   0
       223    860.5405    441.0251 300.3063529 +22.7728528     512.2352     71.97421      1.413     3.56     5.365632     20.30611     56.18756        12     0.987     0.872  77.19   0
       224    604.9058    439.0251 300.2273181 +22.6957409     3063.158     71.90085      1.366     2.71     5.978392     20.30611     393.3434        24     1.124     0.995  68.98   0
       225    965.6621    438.1355 300.3400837 +22.8034843     569.2672     72.01087      1.641     3.18     5.535504     20.30611     81.59529         9     1.118     0.699 -53.56   0
       226     81.1936    429.9182 300.0673042 +22.5362060     436.3706     71.90085      1.613     4.52     5.538585     20.30611      32.5638         7     0.997     0.582  75.00   0
       227    444.6532    426.1823 300.1815782 +22.6440541     445.0792     71.95588      1.624     4.06     5.695733     20.30611     47.58058         7     0.888     0.593 -10.33   0
       228   1016.2818    418.4071 300.3622818 +22.8129612     1268.526     71.90085      1.495     3.21     5.661418     20.30611     138.4402        19     1.134     1.077 -35.70  16
       229    974.7240    416.9827 300.3497752 +22.8001166     1016.424     71.97421      1.555     3.45     5.588303     20.30611     121.2166        19     1.226     1.021  19.51   0
       230    888.2551    418.2282 300.3223945 +22.7745975     498.8212     71.97421      1.272     2.32     5.425654     20.30611     64.63741         8     0.763     0.646 -48.25   0
       231    624.2814    415.3953 300.2410218 +22.6947572     260.2547     71.90085      1.119     3.53     5.938435     20.30611       45.225         5     0.751     0.479   9.71   0
       232    715.6966    413.0553 300.2702683 +22.7214569      1075.98     72.06582      1.375     3.01     5.611167     20.30611     125.7841        16     1.070     0.924 -13.73   0
       233    511.3843    413.6486 300.2064225 +22.6604445     527.5474     72.01087      1.467     4.43      5.86714     20.30611        58.07         9     0.973     0.773  48.00   0
       234    219.5418    411.2792 300.1163664 +22.5723268     605.7139     72.01087      1.347     3.66     5.285479     20.30611     73.60441         9     0.924     0.707 -23.21   0
       235    281.8478    406.8000 300.1372003 +22.5897127     3863.924     71.95588      1.522     2.91     5.303292     20.30611     427.1332        31     1.242     1.121  42.31   0
       236   1015.0217    405.5128 300.3660725 +22.8088778     4363.096     71.90085      1.599     3.11     5.661328     20.30611     456.3163        35     1.296     1.225 -56.24   0
       237    229.0359    401.5168 300.1224865 +22.5723707     7912.399     71.95588      1.530     2.83     5.319408     20.30611     883.6943        45     1.366     1.249  57.78   0
       238    995.0574    396.5916 300.3627365 +22.8003399     1939.443     71.95588      1.628     3.25     5.624743     20.30611     205.3026        26     1.312     1.160 -60.93   0
       239    369.9183    395.7627 300.1681849 +22.6129328     4883.065     71.93754      1.417     2.76     5.549153     20.30611     612.1488        35     1.196     1.153  69.68   0
       240    614.0780    392.5814 300.2452446 +22.6851497      18469.2     71.97421      1.401     2.60     5.947068     20.30611     2434.696        48     1.213     1.150  80.24   0
       241    631.8029    392.4291 300.2508165 +22.6904134     922.7944      71.9192      2.043     6.76     5.910037     20.30611     61.93244        17     1.466     0.987 -41.48   0
       242    811.0356    382.8354 300.3097952 +22.7413153     429.2953     72.04751      1.647     5.19     5.376193     20.30611      41.8218         9     1.135     0.672  75.65   0
       243    234.3343    379.8785 300.1311539 +22.5677491     438.8065     72.08413      1.651     3.73     5.396129     20.30611     43.50575         5     0.834     0.479 -35.20   0
       244    947.5739    375.4435 300.3547811 +22.7800533     792.5378     71.99255      1.647     3.84     5.537463     20.30611     79.34504        17     1.185     1.060 -35.62   0
       245    484.8486    374.4816 300.2108662 +22.6412507      321.798     72.01087      1.191     3.50     5.865433     20.30611     45.21374         7     1.010     0.481 -48.26   0
       246    168.6661    372.5941 300.1130946 +22.5459793     2048.892     71.97421      1.622     3.00     5.719831     20.30611     239.8348        23     1.232     1.074  16.41   0
       247    554.7561    361.9759 300.2366937 +22.6585959     6762.072     72.01087      1.426     2.64     5.928724     20.30611     850.1327        37     1.224     1.125  72.83   0
       248    968.4049    362.5889 300.3654509 +22.7825914     1356.348     71.84577      1.589     3.47     5.574351     20.30611     135.5638        21     1.264     1.049 -23.34   0
       249    269.5482    361.2942 300.1481358 +22.5729673     679.5505     72.04751      1.498     3.29      5.33265     20.30611     78.63075        14     1.055     0.936 -74.50   0
       250    127.1772    354.6046 300.1060301 +22.5283833     397.3379     71.93754      1.427     4.20     6.061439     20.30611     62.88487         8     0.979     0.628 -60.97   0
       251    759.1649    350.9503 300.3039662 +22.7166277     1218.577     71.99255      1.457     3.45     5.671214     20.30611     122.5562        18     1.102     0.986  80.40   0
       252    668.6474    352.1234 300.2753724 +22.6898676     481.0593     71.97421      1.452     4.34     5.833082     20.30611     49.96674         8     1.067     0.621  45.41   0
       253    461.4383    348.1796 300.2121088 +22.6266869     6176.254     71.99255      1.399     2.62     5.861484     20.30611     711.0559        37     1.215     1.122  62.88   0
       254    853.5085    342.8846 300.3360002 +22.7425468     1586.603     72.13902      1.641     3.19     5.482561     20.30611     159.6747        23     1.278     1.036 -88.38   0
       255    950.7266    343.2831 300.3661975 +22.7717526     576.6166     72.10243      1.483     3.08     5.527632     20.30611     73.76637         9     0.915     0.689  -8.43   0
       256    446.2883    337.1349 300.2109744 +22.6189780     488.7585     72.08413      1.514     3.60      5.84593     20.30611     65.74161        11     1.040     0.887 -41.33   0
       257    528.7580    335.0681 300.2373243 +22.6430829     448.0982     71.95588      1.318     2.22     5.898339     20.30611     59.91783         7     0.672     0.661  22.13   0
       258    508.7744    332.9034 300.2318031 +22.6364769     165.1507      71.9192      0.977     3.74     5.887329     20.30611     43.05571         6     1.161     0.347  28.74   0
       259    826.3530    330.6476 300.3315007 +22.7309033     563.8404     71.99255      1.332     3.77     5.443985     20.30611     69.29567        10     1.074     0.684   9.32   0
       260    348.9995    327.3348 300.1838708 +22.5870228     2573.124     71.97421      1.505     2.75     5.748738     20.30611     299.3393        25     1.195     1.059 -82.45   0
       261     67.5806    324.8231 300.0971632 +22.5019764      975.382     71.97421      1.564     2.85     6.085957     20.30611     127.0715        14     1.066     0.841 -57.27   0
       262    318.2820    316.8022 300.1777282 +22.5747972     30360.47     71.88249      1.490     2.77      5.68858     20.30611     3769.451        73     1.374     1.266  76.44   0
       263    296.4208    320.2809 300.1697982 +22.5692466    -137.0055     71.93754      1.056     3.07     5.596452     20.30611     37.66843         5     0.737     0.433  66.56   0
       264    852.9387    314.4809 300.3450352 +22.7342133     1343.989     72.06582      1.478     3.00     5.486923     20.30611     178.8646        20     1.110     1.005  56.91   0
       265     14.5782    304.4496 300.0872982 +22.4802447     5034.444     71.97421      1.765     3.48     6.058586     20.30611     535.2601        47     1.481     1.431  49.21   0
       266    768.3380    303.4541 300.3222311 +22.7057258     628.7997     72.02919      1.523     3.95      5.48927     20.30611      66.9335        11     1.052     0.817  81.67   0
       267    192.0517    303.4206 300.1428016 +22.5331368     543.0305     71.97421      1.821     4.76     5.656096     20.30611     51.32316        10     1.124     0.739 -11.73   0
       268    416.6578    302.1455 300.2130979 +22.6000567     434.8233     72.02919      1.263     3.07     5.841757     20.30611      74.6151        11     0.942     0.798 -16.59   0
       269    728.7549    296.7139 300.3120775 +22.6919416     1974.488     71.95588      1.482     2.90     5.501412     20.30611      239.504        22     1.111     1.041 -16.39   0
       270    536.6219    291.4303 300.2539259 +22.6329047     389.9525     71.97421      1.330     3.92     5.852085     20.30611     56.97033         6     0.995     0.443  35.14   0
       271    943.7667    289.9001 300.3813401 +22.7543247     571.6526     71.95588      1.491     3.85     5.450177     20.30611     56.82228        12     1.099     0.829  27.70   0
       272    390.5169    281.1700 300.2117629 +22.5862045     2231.566     71.99255      1.688     3.22     5.805147     20.30611     247.8093        25     1.308     1.077  63.73   0
       273    602.7463    279.6877 300.2783312 +22.6493296     298.3841     72.01087      1.481     5.02     5.757959     20.30611     33.87646         6     1.066     0.670  82.79   0
       274    829.6899    274.3397 300.3508027 +22.7157192     520.8959     72.06582      1.324     3.16     5.465541     20.30611     69.88483        10     1.004     0.675  -8.05   0
       275    712.2526    271.8123 300.3150089 +22.6798470     339.1707     71.99255      1.331     4.18      5.41625     20.30611     48.21466         9     0.924     0.699  -9.51   0
       276    680.3360    271.1394 300.3052796 +22.6701005      201.997     72.01087      1.045     3.37     5.430526     20.30611     33.61764         6     0.743     0.623 -30.87   0
       277    181.2549    262.5157 300.1527076 +22.5181619      250.881     72.04751      1.037     3.33      5.74976     20.30611     37.54351         5     0.739     0.434 -24.46   0
       278    466.2964    260.7208 300.2419841 +22.6030266     1169.286     72.08413      1.279     2.46     5.592475     20.30611      159.167        17     1.095     0.823  30.15   0
       279    274.1577    261.6489 300.1818845 +22.5457461     229.2842     72.01087      1.118     3.42     5.881055     20.30611     33.87746         5     0.760     0.445 -16.35   0
       280    711.1935    252.6245 300.3209005 +22.6740165     2155.539     71.95588      1.396     2.47     5.375011     20.30611     281.0797        21     1.059     0.995  57.87   0
       281    972.6055    247.1145 300.4042127 +22.7506511     3235.251     71.90085      1.575     2.94     5.402785     20.30611     342.6176        29     1.298     1.157  60.51   0
       282    419.6404    236.3638 300.2353559 +22.5820601     727.8066     72.04751      1.377     2.81      5.35662     20.30611     99.04565        12     0.982     0.809  -8.58   0
       283    125.1227    230.7353 300.1455575 +22.4922220     593.1227     72.06582      1.386     3.97     6.017272     20.30611     74.00035        11     1.156     0.802  24.36   0
       284     94.3619    230.5384 300.1360586 +22.4829483     1374.589     71.99255      1.697     3.68     6.096014     20.30611     149.1109        23     1.399     1.049 -23.54   0
       285    988.4547    227.8894 300.4153918 +22.7498641     503.8971     72.01087      1.343     3.56     5.359066     20.30611     58.59904         9     0.934     0.667 -16.06   0
       286    178.7066    222.7849 300.1647958 +22.5059946     535.6101     71.90085      1.446     3.36     5.955277     20.30611      55.5225         9     0.958     0.671  -2.39   0
       287    854.7950    216.5728 300.3773622 +22.7066264      271.189     71.93754      1.152     2.58     5.478137     20.30611     49.50481         5     0.714     0.449  21.94   0
       288    783.1264    214.2431 300.3557686 +22.6845129     676.7719     71.95588      1.343     3.50     5.336504     20.30611     91.64554        10     1.071     0.661  13.63   0
       289    373.3759    213.6282 300.2283260 +22.5616762     444.4575     71.97421      1.380     3.85     5.527452     20.30611      51.3151         6     0.897     0.474  -6.95   0
       290    881.2034    202.9834 300.3900046 +22.7106204     2112.715     71.90085      1.552     3.22     5.498801     20.30611     251.7049        26     1.534     1.048 -65.41   0
       291    299.6290    200.2239 300.2097223 +22.5357405     2131.495     71.97421      1.463     2.75     5.882383     20.30611     240.8649        23     1.161     1.048 -89.74   0
       292    377.2552    195.3403 300.2354615 +22.5575861     1141.638     72.04751      1.619     2.87     5.459399     20.30611     117.5787        19     1.228     0.970  25.75   0
       293    129.2167    195.6913 300.1581900 +22.4833906     304.6568     71.90085      1.370     4.76     5.899719     20.30611     48.41549         6     0.912     0.705 -79.06   0
       294    779.2530    194.7798 300.3608705 +22.6777596     575.7025     71.95588      1.285     2.65     5.314651     20.30611     95.07167        12     0.943     0.818  16.16   0
       295    886.6155    192.1123 300.3952169 +22.7091140     323.2627      71.9192      1.320     2.61     5.509147     20.30611     37.43712         5     0.720     0.448 -70.45   0
       296    194.4604    187.7298 300.1810579 +22.5006514     749.4783     72.01087      1.414     3.84     5.863766     20.30611     77.70456        12     1.132     0.736 -34.24   0
       297    797.1420    184.0593 300.3699233 +22.6800306     605.5822     72.04751      1.494     3.86     5.322572     20.30611     78.31476        12     1.181     0.809  73.33   0
       298    732.2224    184.3477 300.3495902 +22.6606881     1779.919     71.97421      1.448     2.73     5.272941     20.30611     229.2177        20     1.197     0.973 -80.76   0
       299    215.8212    180.7702 300.1899571 +22.5050522     569.6234     71.97421      1.427     3.07     5.929309     20.30611     68.36757        12     0.924     0.862  39.06   0
       300   1003.8495    177.3365 300.4365846 +22.7399312     734.4381     72.02919      1.533     4.02     5.305453     20.30611     79.85111        12     1.114     0.879  42.63   0
       301    505.7177    177.0342 300.2813891 +22.5907921     354.4416     71.93754      1.159     2.69     5.294332     20.30611     52.61698         7     0.751     0.606  80.71   0
       302    736.3456    175.6309 300.3537009 +22.6594166     939.9172     71.99255      1.833     3.67      5.26719     20.30611     99.24626        16     1.264     0.928 -87.79   0
       303    656.7546    175.2154 300.3290292 +22.6354790     1287.158     71.99255      1.365     2.63     5.348453     20.30611     155.1664        18     1.089     0.916 -71.95   0
       304    477.8048    171.9542 300.2743437 +22.5809762     494.1026     71.97421      1.600     2.58     5.263926     20.30611     49.79647         5     0.762     0.482 -25.74   0
       305    582.9240    167.0409 300.3086754 +22.6110325     959.1334     71.93754      1.401     3.09     5.341636     20.30611     120.6012        16     1.130     0.879  57.37   0
       306    852.2929    166.8087 300.3927135 +22.6915715     1513.887     71.90085      1.423     2.57     5.447491     20.30611     193.8106        16     0.986     0.919  75.26   0
       307    864.1837    166.0022 300.3966836 +22.6948967     950.9215     71.86414      1.569     3.44     5.480723     20.30611     97.23044        14     1.068     0.900  24.65   0
       308    910.3555    165.3848 300.4112861 +22.7085308      274.216     71.99255      1.238     3.43     5.579934     20.30611     38.54608         5     0.743     0.459  16.12   0
       309   1023.8741    156.3474 300.4496377 +22.7398833      593.217       54.825      1.173     3.67     5.203032     20.30611      139.348         7     1.261     0.307  84.11  24
       310    980.9572    156.2042 300.4362902 +22.7270074     1160.213     71.99255      1.560     3.13     5.397643     20.30611     136.3831        21     1.120     1.052  69.83   0
       311      4.7784    152.8086 300.1334104 +22.4337977     597.0418     70.75391      2.040     3.50     6.206131     20.30611     61.76659         7     0.949     0.795 -52.50  16
       312    883.7515    149.4439 300.4081539 +22.6959894     198.0329     72.01087      1.100     3.42     5.548285     20.30611     33.72232         5     0.764     0.443 -21.15   0
       313    215.3117    149.4211 300.1999587 +22.4958993     554.6104     71.90085      1.400     3.08     5.908009     20.30611     64.67435        11     0.943     0.812  63.88   2
       314     76.9669    143.6885 300.1588010 +22.4528101      2162.25     71.93754      1.598     3.20     5.999695     20.30611     232.9257        28     1.291     1.190 -21.08   0
       315    899.9787    141.2942 300.4158571 +22.6984999     696.9182     71.90085      1.206     2.96     5.588524     20.30611     88.45812        10     0.872     0.761 -15.61   0
       316     26.4226    140.6175 300.1440869 +22.4367846     443.3929     71.95588      1.537     3.79     6.142702     20.30611     61.32786         9     1.163     0.793 -65.50   0
       317    234.2708    137.0263 300.2098724 +22.4980192     5667.635     71.97421      1.505     2.84     5.930707     20.30611     597.7245        36     1.328     1.138  75.82   0
       318    215.9883    138.6359 300.2036643 +22.4930054     327.4797     71.97421      1.580     4.60     5.918952     20.30611     33.39021         6     0.938     0.641 -39.86   0
       319     18.5053    131.4274 300.1446046 +22.4317748     1378.718     71.88249      1.884     2.89     6.160776     20.30611     151.3432        25     1.342     1.227 -42.10   0
       320    217.8440    128.1468 300.2076404 +22.4905496     648.8168     71.99255      1.600     3.66     5.932159     20.30611     75.90634        11     1.117     0.717 -53.31   0
       321    878.4622    118.8967 300.4164039 +22.6856238     3593.146     72.06582      1.521     2.99     5.597562     20.30611     344.3092        32     1.242     1.187 -48.87   0
       322    982.0917    117.6842 300.4491283 +22.7162684     2788.665     72.13902      1.584     2.92     5.373201     20.30611     373.7832        28     1.229     1.129  65.63   0
       323    180.6692    114.6996 300.2004363 +22.4755541     359.6147     72.06582      1.442     4.34      5.85742     20.30611     47.99868        10     0.989     0.833  11.77   0
       324    427.8463    114.0555 300.2775530 +22.5493873     519.1257     72.01087      1.192     2.31     5.277712     20.30611     94.15621        10     0.849     0.680 -14.98   0
       325    353.9814    104.9735 300.2575045 +22.5246634     965.8902     71.99255      2.459     8.36      5.38684     20.30611     79.80262        21     2.134     0.916 -22.91   0
       326    118.3629    102.4802 300.1850223 +22.4533827     547.8293     71.93754      1.420     4.17     6.001705     20.30611     77.65441        11     1.264     0.817  77.86   0
       327    479.1923    101.1331 300.2977267 +22.5610459     1675.779     71.97421      1.375     2.79     5.281503     20.30611     189.2175        22     1.135     1.015  78.94   0
       328    407.3766    101.8855 300.2751242 +22.5397630     476.3763      71.9192      1.241     2.97     5.297444     20.30611     55.99873         7     0.834     0.597 -15.58   0
       329     16.1536    101.5725 300.1535473 +22.4225017     368.6386     72.01087      1.339     3.40     6.162418     20.30611     40.17755         5     0.736     0.471 -15.67   0
       330    541.2778    100.5286 300.3172575 +22.5794558     450.2191     72.08413      1.377     3.28     5.307156     20.30611      60.8661         6     0.895     0.443 -17.25   0
       331    222.9725     96.9175 300.2193546 +22.4831186      410.958     71.97421      1.273     2.30     5.952088     20.30611     66.89536         6     0.855     0.443 -33.94   0
       332    767.6431     90.8495 300.3909337 +22.6444097     338.0487     72.01087      1.205     3.05     5.493257     20.30611      61.1251         7     0.902     0.730  39.25   0
       333    913.3958     85.1908 300.4382234 +22.6863793     329.0812     71.80903      1.425     3.46     5.630675     20.30611     33.62311         5     0.815     0.425  69.62   0
       334    760.3295     82.7170 300.3912886 +22.6398837     288.0284     72.10243      1.109     4.92     5.566504     20.30611     54.05466         7     1.348     0.531  58.98   0
       335    253.2443     80.9232 300.2339529 +22.4875913      5819.43     71.95588      1.537     2.96     5.711492     20.30611     632.1973        37     1.325     1.183  63.81   0
       336    664.1851     82.2347 300.3614768 +22.6109797     177.6212     71.97421      1.283     3.43     5.461666     20.30611     30.17843         5     0.975     0.348 -46.46   0
       337    104.3785     80.5892 300.1877673 +22.4429092     699.1174     71.95588      1.646     3.71     6.063764     20.30611     79.49644        14     1.098     0.941 -62.00   0
       338    882.7330     79.0439 300.4306498 +22.6754411     335.1807     71.95588      1.398     3.86     5.715159     20.30611     52.69317         9     1.030     0.844  -7.14   0
       339    225.0266     74.7043 300.2271903 +22.4773551     304.9235      71.9192      1.182     5.10     5.809779     20.30611     41.68462         7     1.330     0.553 -26.86   0
       340    269.0999     72.8323 300.2415067 +22.4900158     323.9984     71.95588      1.240     3.82      5.61648     20.30611     53.22749         5     0.773     0.542  29.56   0
       341     14.9190     71.8018 300.1628086 +22.4135870     283.4174     71.88249      1.308     4.19     6.155393     20.30611     38.49272         6     1.086     0.462 -26.36   0
       342    894.7858     71.0047 300.4370143 +22.6767339     273.6028     71.84577      1.372     3.78     5.695526     20.30611     26.72853         5     0.814     0.504  33.43   0
       343    499.3519     66.3048 300.3152887 +22.5570732      6440.68     72.01087      1.506     2.70     5.273587     20.30611     737.3144        38     1.321     1.152  87.35   0
       344    385.1294     66.1646 300.2797727 +22.5228413     595.3166     71.99255      1.454     3.52     5.331026     20.30611     77.98705        10     1.121     0.683 -73.17   0
       345    751.9419     56.1727 300.3972738 +22.6297430     808.3177     71.97421      1.408     3.34     5.847074     20.30611     89.43999        10     1.029     0.698  14.22   0
       346    844.3389     55.1718 300.4264089 +22.6570930      492.937     71.97421      1.493     4.27     5.920804     20.30611     51.12488         8     1.012     0.585 -28.74   0
       347    912.0359     52.9437 300.4482471 +22.6766984     256.0922     71.99255      1.089     4.87     5.607594     20.30611     29.99031         7     1.244     0.541 -26.71   0
       348    191.7633     49.9935 300.2248500 +22.4602975     485.6208     71.97421      1.552     5.24     5.637872     20.30611      57.5545         9     1.301     0.671  42.31   0
       349    550.6484     49.0361 300.3368593 +22.5674631     409.6436     71.99255      1.459     4.00     5.221391     20.30611     47.00382         8     1.018     0.647 -56.97   0
       350    627.7411     46.4968 300.3616989 +22.5898027     6250.356     72.04751      1.471     2.59     5.374896     20.30611     832.0717        35     1.249     1.108  83.78   0
       351    402.5703     45.2794 300.2919674 +22.5220626         1416     71.97421      1.529     2.92     5.303825     20.30611     181.6319        22     1.200     1.033  75.88   0
       352    669.0526     43.9032 300.3754123 +22.6014178     930.8167     72.04751      1.398     2.90     5.700186     20.30611     111.7802        12     0.899     0.838  81.76   0
       353    738.3504     41.7200 300.3977189 +22.6215219     342.0796     72.01087      1.535     5.10     5.994519     20.30611     38.08116         9     1.106     0.666  45.44   0
       354    684.7951     39.9074 300.3816129 +22.6049790     741.2328     71.86414      1.611     3.82     5.806697     20.30611     77.82719        11     1.049     0.803 -70.88   0
       355    994.1743     37.6884 300.4788185 +22.6968713     331.9047      71.9192      1.527     4.96     5.228665     20.30611     29.41035         6     1.321     0.527  39.94   0
       356    954.7631     37.7778 300.4664911 +22.6851130     566.1149     71.99255      1.490     2.45     5.348457     20.30611     68.18185         9     0.864     0.651 -68.57   0
       357    151.6875     37.8353 300.2163260 +22.4448042      677.627     71.95588      1.566     3.89     5.643786     20.30611     66.79081        12     1.138     0.710 -43.57   0
       358    723.0336     35.2753 300.3950320 +22.6150870      480.324     71.97421      1.311     4.45     6.010633     20.30611     63.59705         8     0.895     0.630  43.60   0
       359    687.1535     30.3553 300.3854423 +22.6029386     951.4264     72.01087      2.069     5.27     5.890483     20.30611     78.58447        19     1.416     1.088  44.05   0
       360    671.9573     31.3405 300.3803871 +22.5986755       2626.5     71.95588      1.445     3.00      5.80761     20.30611     360.5568        26     1.264     1.032  89.24   0
       361    312.6923     32.4709 300.2681445 +22.4914759     427.7806     72.10243      1.345     3.35     5.476377     20.30611     61.72715         5     0.729     0.447 -22.65   0
       362    758.4550     23.0984 300.4100188 +22.6221818     1505.125     72.06582      1.436     3.39     6.200345     20.30611     168.8309        20     1.190     0.944 -89.21   0
       363    918.4115     21.8106 300.4603218 +22.6696504     234.4355     71.86414      1.096     2.31     5.508136     20.30611     53.50658         5     0.675     0.484 -78.82   0
       364    254.4472   1012.7018 299.9318585 +22.7552556     1429.034     72.01087      3.435    10.15     51.78852     20.30611     45.56944        26     1.919     1.495 -58.64  18
       365    181.0509    998.5558 299.9136351 +22.7291784     953.8542     72.01087      3.651     5.90     81.78722     20.30611     55.29382        15     1.190     1.056 -38.78   3
       366    301.8526   1012.0853 299.9468046 +22.7693022     1382.062     71.99255      5.632     5.61     6.202264     20.30611     95.63229        23     1.771     1.063  63.66   3
       367    137.2623   1006.6909 299.8973760 +22.7183683     1591.681     72.06582      3.529    12.14     88.40571     20.30611     59.94092        39     2.454     1.671 -28.80   2
       368    787.8492     12.7855 300.4225240 +22.6280086     445.6804     71.99255      1.268     2.35     6.291903     20.30611     76.18729         8     0.867     0.564  -4.26   0
       369    552.5972    991.4781 300.0315532 +22.8386024      2404.55     71.88249      1.972     5.14     4.068779     20.30611     137.7567        32     1.442     1.356   2.10   0
       370    639.3633    986.6540 300.0601491 +22.8632338     9128.068     71.99255      2.176     5.13     4.036757     20.30611     455.7578        51     1.662     1.546  11.46   3
       371    237.4559   1000.0322 299.9306946 +22.7465268     1962.823     71.99255      3.805    16.54     64.11465     20.30611     65.27154        66     3.806     1.999   4.05   3
       372    206.1546    985.9336 299.9255457 +22.7330945     3968.548     71.97421      8.323    36.03     67.01558     20.30611     82.97315       324     7.614     4.731 -83.67  19
