#   1 NUMBER                 Running object number                                     
#   2 X_IMAGE                Object position along x                                    [pixel]
#   3 Y_IMAGE                Object position along y                                    [pixel]
#   4 ALPHA_J2000            Right ascension of barycenter (J2000)                      [deg]
#   5 DELTA_J2000            Declination of barycenter (J2000)                          [deg]
#   6 FLUX_APER              Flux vector within fixed circular aperture(s)              [count]
#   7 FLUXERR_APER           RMS error vector for aperture flux(es)                     [count]
#   8 FLUX_RADIUS            Fraction-of-light radii                                    [pixel]
#   9 FWHM_IMAGE             FWHM assuming a gaussian core                              [pixel]
#  10 BACKGROUND             Background at centroid position                            [count]
#  11 THRESHOLD              Detection threshold above background                       [count]
#  12 FLUX_MAX               Peak flux above background                                 [count]
#  13 ISOAREA_IMAGE          Isophotal area above Analysis threshold                    [pixel**2]
#  14 A_IMAGE                Profile RMS along major axis                               [pixel]
#  15 B_IMAGE                Profile RMS along minor axis                               [pixel]
#  16 THETA_IMAGE            Position angle (CCW/x)                                     [deg]
#  17 FLAGS                  Extraction flags                                          
         1    671.2197     17.2465 300.3928979 +22.6015414     756.9293      72.0228      1.447     3.24     6.850627     20.30948     91.86025        11     1.082     0.784  53.49   0
         2    477.0701     16.2114 300.3327246 +22.5431609     1114.406     72.00447      1.665     3.76     6.254359     20.30948     109.9659        19     1.293     1.036  51.36   0
         3    380.9118     14.4487 300.3033458 +22.5138785     805.1778     71.98614      1.389     2.89     6.546138     20.30948     111.9502        15     1.073     0.996  16.47   0
         4   1023.1974     11.5861 300.5045583 +22.7051523     1578.231     58.53641      1.448     3.62      7.61625     20.30948     199.6086        19     1.468     0.739  86.94  24
         5    763.1891     13.9313 300.4226526 +22.6280934     468.1921     71.98614      1.633     5.02     6.652435     20.30948     56.70225         8     1.077     0.674  28.52   0
         6    152.1011      4.2893 300.2354204 +22.4424648     3902.564     69.61857      1.837     3.26     7.272752     20.30948     384.0518        40     1.529     1.306  39.35  24
         7    720.3032      5.3085 300.4120702 +22.6127864     568.9042     71.98615      1.411     3.47      6.98549     20.30948     63.31897        10     0.952     0.804  13.62  16
         8    150.9862    998.3199 299.9124611 +22.7275181     2790.203      71.9678      5.259    19.04     81.69794     20.30948     70.70341       102     4.023     2.741  -7.06   3
         9     67.2031   1010.6725 299.8823900 +22.7059199     5103.259     71.93111     15.915    81.22     75.25755     20.30948     153.1585      2159    17.370    13.769  52.37  27
        10     59.6981    954.3773 299.8983635 +22.6875264     5496.641     71.91276     21.572    98.91     37.95478     20.30948     1223.998      3031    19.827    13.690 -20.85  19
        11    616.1051    986.8126 300.0610157 +22.8637020     13110.28     71.91276      3.368    11.48     5.186854     20.30948     477.5699        85     3.009     1.658 -26.70   3
        12    620.4484    985.6982 300.0627318 +22.8646840     5052.239      72.0228      1.600     5.51     5.169534     20.30948     449.3381        20     1.714     0.735  77.04   3
        13    713.0215    988.9687 300.0905262 +22.8933688     471.1308     71.98614      1.905     3.70      4.59212     20.30948     31.65724         5     1.007     0.392  30.38   0
        14    715.6483    987.4700 300.0918327 +22.8937257     501.2642      71.9678      1.585     3.32     4.578494     20.30948     43.07557         5     0.984     0.325  67.87   0
        15    144.6577    968.5093 299.9201872 +22.7170703     923.0601     72.04113      3.947    10.14     55.92913     20.30948     38.12861        17     1.976     1.452 -75.63   3
        16    147.5433    980.9652 299.9170342 +22.7215082     1160.674     72.00447      3.421    10.34     66.54604     20.30948     45.78748        25     2.681     1.111  28.67   3
        17    147.2120    977.5917 299.9180282 +22.7204413     1042.578     71.87605      2.780     6.36     63.88897     20.30948     45.16842        12     1.378     0.825   2.79   3
        18    148.5820    975.1815 299.9192381 +22.7201611     1399.702     71.98614      5.799    11.89     61.18623     20.30948     56.61281        27     2.637     1.493  32.65   3
        19    906.7928    971.2999 300.1567159 +22.9463531     799.9549      71.8944      2.200     7.67     5.250594     20.30948      42.1172        16     1.662     0.990  17.87   0
        20    154.9462    985.5064 299.9178599 +22.7250316     878.5145     72.04113      7.351    13.25     70.95169     20.30948     44.64532        17     4.049     1.206 -49.51   3
        21     58.2295    916.6645 299.9101685 +22.6762712     3405.332     72.00447     12.523    49.29     20.65949     20.30948     77.57676       821    10.187     7.043 -32.84  19
        22    119.1533    956.6840 299.9161006 +22.7060270     1141.586      71.9678      8.760    10.30     46.16815     20.30948     39.25373        18     2.496     1.185  35.03   3
        23    126.2792    956.1076 299.9185041 +22.7079997     1922.983     72.11438      7.840    11.96     45.05896     20.30948     52.55687        42     2.256     1.766  35.37   3
        24    528.5044    992.4942 300.0318711 +22.8390722     1705.128     72.15098      1.804     5.23     5.385001     20.30948     122.7793        23     1.611     0.951  71.76   3
        25    632.2046    954.5684 300.0765199 +22.8592707     6693.854      71.9678      2.108     4.93     5.117573     20.30948     378.5582        53     1.640     1.574 -30.69   0
        26    525.6634    992.2787 300.0310561 +22.8381587     901.9067     72.07776      1.490     3.86     5.374728     20.30948     98.64603        12     1.182     0.703  85.81   3
        27    197.0081    954.7668 299.9409397 +22.7288339     736.9771     71.98614      2.936     7.80     35.80426     20.30948     32.19579        13     1.470     1.158 -80.30   0
        28    144.2800    949.3948 299.9262852 +22.7114750     693.1091     71.91276      6.078     7.28     38.21907     20.30948     39.43296        10     1.767     0.841 -56.60   1
        29    512.4828    949.1296 300.0409825 +22.8218224     328.0493     72.11438      1.854     6.09     5.403915     20.30948     34.72356         9     1.439     0.873  75.14   0
        30    540.6465    945.3748 300.0509777 +22.8291874      1606.82     72.00448      1.922     4.55     5.436308     20.30948     104.4641        27     1.411     1.262   8.61   0
        31    151.7641   1007.9263 299.9095788 +22.7305064     849.5759     71.93111      2.730    15.56     90.64523     20.30948     44.37746        23     3.180     2.116   0.23  19
        32    435.3940    941.4541 300.0194673 +22.7965075     830.6705      71.9678      1.801     5.51     5.559523     20.30948     67.48091        12     1.377     0.707  76.64   2
        33    432.2142    942.0238 300.0182919 +22.7957176      470.082     72.00447      2.016     5.08     5.566546     20.30948       42.478         7     1.006     0.726 -44.40   3
        34    365.0999    939.6770 299.9981576 +22.7749198     6425.396     72.13268      2.122     4.62     5.711889     20.30948     422.7554        48     1.594     1.534  -2.45   0
        35    398.7361    927.4020 300.0126214 +22.7814834     485.8389     72.00448      1.936     5.35     5.675979     20.30948     37.53955         7     1.068     0.756 -86.79   2
        36    210.2756   1000.8953 299.9300663 +22.7460446     1379.051     72.13268      2.594     7.40     70.57404     20.30948     59.00365        27     1.862     1.321 -82.80   0
        37    218.4155    974.0263 299.9413369 +22.7407799     7467.648     72.00447      8.045    29.47     46.79176     20.30948     149.2086       672     9.499     4.976  61.43  18
        38    911.5140    918.7350 300.1752833 +22.9326663     2063.653     72.07776      2.170     6.17     5.378275     20.30948     92.43364        35     1.593     1.480  29.70   0
        39    409.6634    914.6418 300.0201727 +22.7810979     329.2348      71.9678      1.718     4.27     5.669223     20.30948     40.48157         6     1.069     0.766 -39.94   0
        40    700.4222    907.3845 300.1131284 +22.8661658     819.3206      71.9678      2.405     8.65     5.131075     20.30948     44.63108        19     1.708     1.223  34.59   0
        41    735.1277    901.7274 300.1257892 +22.8749402     1049.358     72.04113      1.938     4.64     5.156411     20.30948     83.87334        20     1.418     0.967   9.02   0
        42    336.7823    999.5237 299.9698803 +22.7835986     646.5453     71.98614      2.941     5.13       5.9969     20.30948     39.09462         9     1.242     0.599  82.17   0
        43    947.3984    895.9021 300.1939069 +22.9368535     468.9961      71.8944      1.839     5.96     5.560201     20.30948     33.96831         7     1.449     0.690  30.54   0
        44    803.4997    895.9885 300.1489788 +22.8937760      231.865      71.8944      1.473     4.22     5.338824     20.30948     31.89878         5     1.140     0.446  29.49   0
        45    757.3193    895.3636 300.1347786 +22.8797613     11270.98     71.93111      2.004     4.80     5.251795     20.30948     653.0345        59     1.628     1.528  34.79   0
        46    462.7929    883.3042 300.0469065 +22.7880317     427.2631     71.87605      1.703     4.41     5.547233     20.30948     47.46692         6     1.055     0.525 -31.73   0
        47    765.7961    877.4635 300.1432417 +22.8771595     1513.308     71.94946      1.939     4.76     5.378307     20.30948     96.85228        24     1.340     1.182  22.04   0
        48    802.5544    871.2811 300.1567166 +22.8863954     876.3367      71.9678      2.781     6.52     5.430429     20.30948     56.80606        11     1.313     0.908 -89.92   2
        49    143.6972    870.1746 299.9518585 +22.6885775     389.3425     71.93111      2.020     4.47     10.95092     20.30948     34.17013         5     1.190     0.477 -34.05   0
        50    852.7183    862.9827 300.1750635 +22.8990377     460.7026      71.9678      1.871     4.60     5.508975     20.30948     35.08968         6     0.802     0.750  19.76   0
        51    703.3132    861.0145 300.1291048 +22.8537148     664.6682     71.93111      2.209     8.37     5.499024     20.30948     38.03206        14     1.669     1.172  38.47   0
        52    715.4214    858.7777 300.1336073 +22.8567002     618.9053     71.98614      1.810     4.72     5.489165     20.30948     54.84136        14     1.350     0.789  39.59   0
        53    416.3240    857.3467 300.0408727 +22.7666503     4184.348      72.0228      1.908     4.29     5.670403     20.30948      305.309        41     1.479     1.443  88.88   0
        54    141.6724    842.8142 299.9601217 +22.6801215     802.7705     71.98614      2.054     6.64     8.888765     20.30948       56.453        18     1.489     1.367 -28.13   0
        55    118.7210    839.7409 299.9539825 +22.6723556     1553.232      72.0228      2.073     4.50     8.913795     20.30948     126.3363        32     1.599     1.360  24.47   0
        56    990.3823    829.6517 300.2288619 +22.9306864     2197.068      71.9678      2.018     4.85     5.641276     20.30948     121.4628        32     1.490     1.332  19.56   0
        57    944.7979    827.9648 300.2151808 +22.9165521     2209.646     71.94946      2.070     4.91      5.65882     20.30948     114.6669        34     1.511     1.419   3.84   0
        58    649.5118    828.3454 300.1229510 +22.8282120      620.116      72.0228      2.346     5.56     5.608558     20.30948     37.90107         7     1.640     0.531 -16.43   0
        59    729.6235    822.0972 300.1499586 +22.8504190     703.8092     71.91276      2.352     4.73     5.555606     20.30948     47.38313         7     1.081     0.587 -48.86   2
        60    151.7553    822.1314 299.9699796 +22.6772122     489.9477     71.94946      1.726     2.72     7.622198     20.30948     56.62062         7     0.828     0.586  55.66   0
        61    596.3648    815.6050 300.1105268 +22.8086281     4695.386     71.98615      1.820     4.27      5.72052     20.30948     377.7228        38     1.429     1.319  35.27   0
        62     85.7776    814.7916 299.9518463 +22.6553172     356.4128     71.98614      1.783     4.76     7.159657     20.30948      29.2007         7     1.899     0.338  40.43   0
        63    398.3221    812.4182 300.0498698 +22.7483572     577.0275     71.98615      1.766     6.09     5.703059     20.30948     48.56708        13     1.279     0.935 -20.55   0
        64    146.4670    809.0703 299.9725793 +22.6718790     1396.692      72.0228      2.025     5.14     6.900996     20.30948     99.61028        26     1.460     1.289  30.35   0
        65    617.1025    808.0930 300.1194313 +22.8126847      715.485     72.16927      1.719     4.46     5.733381     20.30948     69.87395        13     1.182     0.840   3.82   0
        66    533.7111    799.4897 300.0962409 +22.7852251     241.9156     72.15098      1.097     3.42     5.776073     20.30948     44.60999         5     1.022     0.331 -22.78   0
        67    989.6202    795.5855 300.2396962 +22.9206668     1073.059      71.9678      2.081     7.47     5.616737     20.30948     54.77464        24     1.590     1.209 -23.57   0
        68    772.3921    795.3868 300.1719774 +22.8555573     4375.987     71.87605      1.877     4.10     5.683036     20.30948     313.6396        40     1.476     1.384  52.60   0
        69    181.1821    789.7542 299.9896546 +22.6767480     491.7689      72.0228      1.804     4.68      6.45908     20.30948     49.67152        10     1.211     0.921  -1.89   0
        70    489.3633    787.7023 300.0862556 +22.7685499     697.5905     71.98615      1.759     6.97     5.760442     20.30948     47.57056        16     1.309     1.041  12.02   0
        71    135.9053    785.6857 299.9768932 +22.6620022     1013.444     72.16927      1.928     4.82     6.444332     20.30948     76.17875        17     1.323     1.208  -4.21   0
        72    285.4197    777.7194 300.0259989 +22.7045502     54002.09      71.9678      1.906     4.13     5.952671     20.30948     4305.571       103     1.647     1.574  27.64   0
        73    551.6470    781.1744 300.1077812 +22.7853406     508.9104     72.00447      1.575     4.11     5.802929     20.30948     45.46104         9     0.922     0.692  23.98   0
        74    956.2984    776.6289 300.2354550 +22.9052414     805.2682     71.91276      1.956     6.20     5.670959     20.30948     51.67051        18     1.452     1.012  19.98   0
        75    543.3124    776.8378 300.1065934 +22.7815977     1662.912      71.9678      1.738     4.15     5.805964     20.30948      124.119        25     1.256     1.224  41.67   0
        76    214.4598    775.8767 300.0045166 +22.6827450     445.0655     72.04113      1.541     3.56     6.461764     20.30948     55.05495         6     0.968     0.496  86.70   0
        77    572.3633    772.8091 300.1169547 +22.7891459     870.4131     71.98614      1.783     4.81     5.815274     20.30948     72.97209        16     1.306     0.947  15.42   0
        78    583.3315    771.4358 300.1208190 +22.7920380     713.0109     71.98615      1.883     3.31     5.818606     20.30948      68.9419        13     1.040     0.898 -10.33   0
        79    688.6731    767.4796 300.1549400 +22.8224620     494.4471     72.09607      1.764     6.09     5.838139     20.30948     39.11094        12     1.107     0.943 -35.70   0
        80    335.1814    754.9885 300.0488734 +22.7129441      31713.5     71.94946      1.838     3.60     5.815307     20.30948     2727.714        79     1.577     1.468  17.97   0
        81    726.2504    757.9629 300.1697490 +22.8309844     717.4794     71.98614      1.698     5.14     5.900444     20.30948     51.96717        15     1.223     0.928   4.64   0
        82    349.4669    755.5097 300.0531512 +22.7173760     2059.952     72.09607      1.878     4.16     5.782384     20.30948     164.0289        28     1.370     1.209  25.94   2
        83    346.3539    749.8603 300.0540176 +22.7148212     708.7726      72.0228      2.282     4.12     5.795717     20.30948     67.34816        13     1.205     0.844   8.39   2
        84    858.3413    751.3109 300.2131121 +22.8686337      2959.71     72.05945      1.883     4.04      5.91042     20.30948     217.2382        32     1.396     1.306  24.98   0
        85    616.1803    747.1337 300.1389529 +22.7949001      949.978     71.94946      1.695     4.12     5.865118     20.30948     79.66238        17     1.238     0.964  48.93   0
        86    463.2169    741.7482 300.0930432 +22.7475190     916.1036     71.98615      1.749     3.97     5.698393     20.30948     106.9817        19     1.289     1.042  40.39   0
        87     22.8936    741.7714 299.9560208 +22.6155083     348.7711     71.91276      1.462     5.19     5.669281     20.30948      39.0588         9     1.204     0.633  69.86   0
        88    864.6951    739.2549 300.2190119 +22.8670715     486.1429     72.04113      1.694     5.54     5.906241     20.30948     39.95871        10     1.154     0.751  30.74   0
        89    365.3895    738.6824 300.0635755 +22.7173183     311.8665     71.94946      1.459     3.77     5.779643     20.30948     40.95638         6     1.039     0.456   5.70   0
        90    409.3549    737.0391 300.0777987 +22.7300243     540.8239     72.05945      1.844     5.40     5.728465     20.30948     33.98082        11     1.062     0.774   9.46   0
        91    217.4978    746.7827 300.0149147 +22.6753067     808.4078     71.91276      1.868     6.86     6.544073     20.30948     64.41508        14     1.434     0.941  22.77   0
        92     51.3259    735.7077 299.9668299 +22.6222968      625.243     72.13268      1.937     4.76     5.945796     20.30948      49.6843         8     1.186     0.726  75.79   0
        93    539.0350    721.6194 300.1232018 +22.7644581     367.0139     72.00447      1.487     4.11     6.008726     20.30948     52.13352         7     1.072     0.779 -35.29   0
        94    545.7833    720.6362 300.1256238 +22.7661977     211.4024     71.98615      1.313     3.47     6.043317     20.30948     27.32437         5     0.780     0.445  16.49   0
        95    508.3177    719.9905 300.1141609 +22.7547862     667.6142     71.93111      1.702     3.88     5.903866     20.30948     55.80186        13     1.168     0.736  -2.46   0
        96    924.7979    716.5674 300.2451388 +22.8785464      4577.48     71.94946      1.863     4.29     5.835216     20.30948     299.7302        40     1.462     1.381  19.00   0
        97    530.2142    717.2437 300.1218750 +22.7605584     1329.137     72.00447      1.757     3.92     6.023774     20.30948     134.5376        21     1.232     1.148  -9.80   0
        98    450.2206    717.1058 300.0970011 +22.7365483     301.0141     71.91276      1.321     4.01     5.818547     20.30948     44.30356         5     0.765     0.668 -40.06   0
        99    611.9329    712.6004 300.1488486 +22.7837082     360.9167     71.93111      1.356     4.34      6.11965     20.30948     41.00028         7     1.139     0.470  -7.61   0
       100    913.2818    708.1598 300.2442762 +22.8726819     1717.989     71.94946      1.832     3.93     5.906123     20.30948     118.2792        27     1.337     1.206 -13.21   0
       101    276.4551    701.4803 300.0479776 +22.6799799     1049.508      72.0228      2.038     4.37     6.327733     20.30948     77.88803        19     1.286     1.130  54.28   0
       102    142.1421    701.9724 300.0060296 +22.6398522     339.1505     71.98614      1.704     5.85      6.52948     20.30948     32.76331         6     1.624     0.593  53.27   0
       103    739.5833    699.2341 300.1929874 +22.8181040      2492.38      71.9678      1.745     3.58     6.211944     20.30948     204.7479        31     1.457     1.162  24.10   0
       104    944.3493    698.2017 300.2572077 +22.8791203     1736.375      71.9678      1.856     4.07     5.823954     20.30948     128.6194        25     1.423     1.087  20.10   0
       105    125.3346    685.7302 300.0060777 +22.6301515     525.6963      72.0228      1.689     4.10     6.503226     20.30948     47.32852         9     1.032     0.682 -38.39   0
       106    822.0340    684.9763 300.2233359 +22.8386976      589.028     72.00447      1.770     5.17     6.327733     20.30948     49.57762        11     1.269     0.723  30.11   0
       107    858.0672    676.1498 300.2374450 +22.8469498     148416.8      71.9678      1.774     3.64     6.328078     20.30948     10853.41       162     1.597     1.586  63.20   0
       108    618.7807    680.0234 300.1615653 +22.7764012     429.7626     71.98614      1.859     4.23     6.445427     20.30948     38.45969         6     0.850     0.601 -47.00   2
       109   1004.9723    678.0983 300.2826631 +22.8914875     1241.406     71.93111      1.838     3.49     5.728155     20.30948     100.3116        20     1.170     1.074  20.26   0
       110    710.6650    676.5219 300.1913476 +22.8029170     820.2776     72.07776      1.632     3.21     6.322607     20.30948     93.76461        14     1.045     0.900  66.61   0
       111    890.7281    669.3926 300.2498313 +22.8547860     400.9532     71.94946      1.558     5.34     6.182494     20.30948     38.76641        10     1.210     0.664   2.77   0
       112    544.3416    664.8202 300.1433056 +22.7497340     1695.526     71.98614      1.664     3.50     6.594635     20.30948     161.6734        23     1.290     1.081  22.31   0
       113    725.5399    662.2422 300.2006241 +22.8032685     9442.602      71.9678      1.672     3.36     6.339898     20.30948     877.4319        43     1.328     1.296  68.10   0
       114    226.9887    656.9890 300.0470351 +22.6523800     4811.564     71.87605      1.779     3.52     6.572796     20.30948       434.68        37     1.431     1.252  33.93   0
       115    309.1270    655.4337 300.0731023 +22.6765545     1191.264     71.98614      1.755     3.57     6.413487     20.30948     118.1359        22     1.275     1.117 -17.83   0
       116    517.1534    651.1749 300.1392664 +22.7376691     806.6733     72.00447      1.789     4.05     6.474653     20.30948     84.83804        13     1.150     0.805  -4.35   0
       117    185.2884    652.2972 300.0355848 +22.6385321     234.4452     72.16927      1.198     3.71     6.588395     20.30948     45.90884         5     0.940     0.420  45.15   0
       118    508.9364    642.8179 300.1394205 +22.7328069     3197.736      71.9678      1.587     3.47     6.470986     20.30948     309.6663        31     1.346     1.158  57.68   0
       119    499.2826    636.6484 300.1384167 +22.7281426     1518.925     72.00448      1.650     3.14     6.455507     20.30948     155.0634        18     1.097     0.968  28.23   0
       120    892.3524    635.3151 300.2614065 +22.8454760     467.9009      71.9678      1.805     5.24     6.311917     20.30948     37.76942         8     1.044     0.743 -29.62   0
       121    162.9070    632.7698 300.0349638 +22.6262173     618.9976     71.91276      1.595     3.58     6.616819     20.30948     65.82488        10     1.022     0.867 -55.84   0
       122    177.2013    630.9146 300.0400128 +22.6299701     648.9339     71.91276      1.831     5.25     6.609118     20.30948     57.55619        13     1.183     0.925 -22.19   0
       123    946.1912    628.7348 300.2803466 +22.8597003     569.6147      71.9678      1.773     4.69     6.173487     20.30948     43.02513        10     0.986     0.801 -21.59   0
       124    202.3202    628.2922 300.0486789 +22.6367475     488.0685     72.09607      1.849     3.48     6.592778     20.30948      57.1478        10     1.048     0.669 -38.81   0
       125    423.9530    626.3727 300.1182904 +22.7026210     1764.185      72.0228      1.637     3.49     6.411845     20.30948     144.3022        24     1.213     1.146 -15.40   0
       126    523.4135    627.2203 300.1489962 +22.7326638     472.3875     71.94946      1.439     3.13     6.613669     20.30948     46.39005         6     0.713     0.635   4.55   0
       127    999.9533    624.2354 300.2985909 +22.8744977     876.5183     72.00447      2.032     4.87     5.820991     20.30948     53.89174        17     1.214     1.083   2.83   0
       128     77.8727    621.0068 300.0123370 +22.5973464     19968.28     71.93111      1.953     3.89     6.732495     20.30948     1611.831        68     1.634     1.511  24.56   0
       129    508.8933    621.6490 300.1462817 +22.7267134     1138.213      72.0228      1.732     4.19      6.58434     20.30948      86.8003        21     1.369     1.033  39.52   0
       130    544.5215    621.2234 300.1575204 +22.7372644      316.441     71.94946      1.451     4.48     6.718053     20.30948     29.33761         6     0.947     0.603 -23.47   0
       131    503.8442    614.0391 300.1471799 +22.7230148     820.3049     72.05945      0.449     1.82     6.612375     20.30948     639.4766         5     0.375     0.281 -22.93   0
       132    262.8713    613.3942 300.0723578 +22.6506208     277.5829     71.94946      1.289     3.18     6.550955     20.30948     33.38962         5     0.860     0.488  -1.84   0
       133    927.1252    608.2358 300.2810528 +22.8480996     1202.402     71.93111      1.898     4.39     6.455496     20.30948     91.43858        22     1.307     1.182 -24.10   0
       134     23.8322    605.4519 300.0005857 +22.5766785     1526.892     72.00447      2.108     5.43     6.939922     20.30948     114.1476        33     1.682     1.405  89.10   0
       135    793.7513    606.2598 300.2400792 +22.8076046     427.5019     72.04113      1.616     4.08     6.379744     20.30948     48.52523         8     1.110     0.613 -43.96   0
       136     90.7000    605.9792 300.0212052 +22.5968797     402.2342     71.93111      1.282     4.35     6.745637     20.30948     42.15657         7     1.296     0.415  63.26   0
       137    472.6091    601.9185 300.1413855 +22.7101755     394.4069     71.93111      1.468     4.52     6.605075     20.30948     44.59766         8     1.077     0.538  68.36   0
       138    867.3353    601.1334 300.2647006 +22.8281603     954.1126     72.04113      2.469     4.83     6.387234     20.30948     59.58164        13     1.291     0.771   6.01   2
       139    265.3817    601.0541 300.0771459 +22.6478304     403.7304      71.9678      1.884     4.55      6.53511     20.30948     31.18916         6     0.869     0.676  65.76   0
       140    429.4012    594.4650 300.1303480 +22.6950894     739.2858     71.98615      1.670     3.47     6.562154     20.30948     76.69333        15     1.091     0.921 -82.31   0
       141    576.8174    593.1807 300.1766901 +22.7388821     497.2731      71.9678      1.513     5.76     6.793489     20.30948     42.64509         9     1.292     0.725  56.65   0
       142    624.2615    591.8664 300.1919037 +22.7527145     407.5421      72.0228      1.387     4.17     6.741404     20.30948     50.74247         8     0.863     0.822 -59.80   0
       143    594.5153    591.1093 300.1828783 +22.7435878     559.2656     72.15097      1.614     5.70     6.786933     20.30948     52.27361        11     0.996     0.918 -51.49   0
       144    473.3535    590.4064 300.1453554 +22.7070918     859.4059     72.00448      1.610     3.17     6.657402     20.30948     94.81367        16     1.142     0.892   3.09   0
       145    907.2090    586.2168 300.2819871 +22.8358073     3415.097     71.93111      1.708     3.44     6.432742     20.30948     287.9522        34     1.347     1.262   7.99   0
       146    438.8570    585.9191 300.1360677 +22.6954679     1726.692      72.0228      1.538     3.34     6.595864     20.30948     180.1668        21     1.156     1.004   7.86   0
       147   1005.0270    584.3527 300.3131264 +22.8645471     745.1611     72.00447      1.926     6.79     6.177942     20.30948     48.19058        16     1.310     1.086  41.18   0
       148    413.7469    581.5381 300.1296701 +22.6866863     225.1924     72.04113      1.242     4.08     6.540801     20.30948     32.63506         7     1.021     0.465 -11.45   0
       149      1.8351    579.2516 300.0022538 +22.5625641     3002.993     58.87367      1.293     3.00     7.025859     20.30948     402.1326        18     1.245     0.754  85.54  24
       150    467.9344    576.9496 300.1480365 +22.7016029     381.8225      72.0228      1.886     3.49     6.699354     20.30948     38.10448         5     0.789     0.510 -26.91   0
       151    946.5453    575.9868 300.2975862 +22.8446393     412.8774     71.98614      1.828     5.15     6.420227     20.30948      33.9719         8     1.234     0.644  35.52   0
       152    302.2112    572.4698 300.0978891 +22.6506607      9322.64     71.98614      1.675     3.24     6.459965     20.30948     1016.175        45     1.385     1.279  33.21   0
       153    424.6739    569.6024 300.1369481 +22.6865319     8954.618      71.8944      1.629     3.22      6.57987     20.30948     939.7538        41     1.343     1.221  38.76   0
       154    671.2663    565.7694 300.2150299 +22.7592919     313.1535     71.98615      1.643     4.49     6.789079     20.30948     28.74326         5     0.791     0.724  60.97   0
       155    836.5697    563.8219 300.2672165 +22.8082239     1936.514     71.98614      1.686     3.69     6.384172     20.30948     156.6265        24     1.267     1.079  44.92   0
       156    921.0915    561.2891 300.2944136 +22.8327949     12760.72     72.15098      1.734     3.46      6.44867     20.30948     1060.297        52     1.408     1.387 -85.95   0
       157    485.2942    559.2242 300.1591989 +22.7017115     11574.26      71.8944      1.585     2.96     6.834363     20.30948      1170.57        49     1.307     1.296  68.79   0
       158    654.6471    555.3374 300.2132356 +22.7513172     558.0624     72.00448      1.400     3.72     6.859055     20.30948     57.47082        14     1.168     0.799  56.75   0
       159    212.7778    554.4981 300.0758918 +22.6186974     1315.578     71.91276      1.671     3.72     6.497309     20.30948      124.257        21     1.193     1.127 -76.62   0
       160    459.9081    552.3874 300.1535108 +22.6921427     462.3549     71.93111      1.402     3.66     6.762261     20.30948     63.01904         8     1.031     0.550 -28.14   0
       161    759.9131    547.6377 300.2485588 +22.7806229     746.8556      71.9678      1.507     3.51     6.450781     20.30948     86.78554        16     1.148     0.933  79.17   0
       162    416.9442    547.3187 300.1417752 +22.6778155     4566.656      72.0228      1.605     3.12     6.563413     20.30948     441.6131        33     1.284     1.218  53.39   0
       163    395.2487    545.7793 300.1355189 +22.6708734     1110.252     71.98615      1.527     3.53     6.515424     20.30948     128.5587        22     1.273     1.080 -52.54   0
       164    149.9416    545.4841 300.0592698 +22.5972753     717.1285     72.09607      1.624     3.69     6.623485     20.30948      68.9284        11     1.053     0.814 -32.92   0
       165    836.8483    543.1870 300.2740028 +22.8023748     1654.179     72.00447      1.779     3.93     6.384562     20.30948     128.5291        25     1.294     1.154 -22.27   0
       166     83.8547    542.6226 300.0396450 +22.5766431     441.1645     72.00447      2.130     5.02     6.684342     20.30948     29.09012         6     1.060     0.672  18.96   0
       167    533.6009    534.9707 300.1821221 +22.7092132     207255.9     71.94946      1.556     3.13     7.010827     20.30948     21215.79       203     1.573     1.481 -13.70   0
       168    357.0785    541.4103 300.1250523 +22.6581821     399.3569     71.94946      1.456     3.20     6.434455     20.30948     45.06596         5     0.999     0.482  38.16   0
       169    717.3318    539.8779 300.2377987 +22.7656437     697.9093     72.09607      1.504     5.75     6.623082     20.30948     71.22188        14     1.084     1.010 -18.34   0
       170    219.6291    534.7274 300.0844414 +22.6150743     3594.972     71.98615      1.730     3.53     6.463269     20.30948     362.0751        36     1.405     1.259  32.44   0
       171    785.4555    531.6136 300.2617276 +22.7836632     647.2602     71.98615      2.538     4.51     6.410094     20.30948     47.65312         9     1.213     0.605   8.72   0
       172    804.3256    529.8200 300.2681961 +22.7887964     292.8661     71.98614      1.469     3.57     6.381989     20.30948     29.27598         6     0.739     0.631  24.54   0
       173    565.1154    521.9501 300.1961687 +22.7149106     220.2639      71.9678      1.408     5.18     7.012322     20.30948     38.53769         7     1.067     0.711 -12.12   0
       174    424.2401    515.1917 300.1544760 +22.6707726     2785.523     71.98614      1.643     3.13     6.719223     20.30948     253.4942        29     1.281     1.215  68.55   2
       175    269.2299    517.9247 300.1053304 +22.6251140     502.7577     71.98614      2.009     2.05     6.426979     20.30948     52.65764         5     0.598     0.587  73.44   2
       176    873.7710    515.3836 300.2945490 +22.8054321     308.9231     71.98614      1.558     4.47     6.398726     20.30948     32.50022         5     0.976     0.583  48.33   0
       177    835.5804    512.1572 300.2836802 +22.7930737     407.8789     72.00447      1.602     3.57     6.378425     20.30948     44.52583         8     0.874     0.657 -25.12   0
       178    654.9620    511.2785 300.2276364 +22.7387490     383.6122      71.9678      1.848     3.87     6.908771     20.30948     38.69264         6     0.917     0.469 -34.78   0
       179    741.6049    504.1069 300.2569798 +22.7626283     405.3833     71.87605      1.402     4.43     6.484131     20.30948     51.22245         9     0.992     0.764  38.77   0
       180    821.3606    501.6688 300.2826484 +22.7858018     1729.042     71.94946      1.594     3.37     6.376446     20.30948     174.7153        24     1.222     1.126  31.81   0
       181    692.5323    499.2376 300.2432580 +22.7465371     2454.702      71.9678      1.553     3.19     6.778912     20.30948     237.2655        26     1.205     1.092 -12.66   0
       182    936.9883    497.5625 300.3200629 +22.8192263     320.2312      71.9678      1.234     4.31     6.612656     20.30948     61.39412         7     0.879     0.603  20.26   0
       183    597.1992    495.9495 300.2146068 +22.7170470      344.869      71.9678      1.435     4.44     6.946205     20.30948     51.99919         7     1.178     0.477 -39.38   0
       184    949.7793    493.5966 300.3253428 +22.8219133     1291.712     71.94946      1.601     3.45     6.722041     20.30948     121.4279        22     1.260     1.039  47.98   0
       185    480.0131    494.9847 300.1784062 +22.6816739     708.6242     71.93111      1.413     3.40     6.893252     20.30948     76.15224        12     1.028     0.793 -26.01   0
       186    935.6672    493.0228 300.3211241 +22.8175253     860.7946      71.9678      2.032     4.53      6.61796     20.30948     64.65289        15     1.264     0.845  29.63   0
       187    821.6620    491.7594 300.2859588 +22.7830428     2125.042      71.9678      1.772     3.98     6.374466     20.30948     174.1184        29     1.536     1.115  84.71   0
       188    574.8392    489.9890 300.2095728 +22.7086382      670.095     71.98614      1.639     3.43     7.020844     20.30948     76.59215        12     1.075     0.806  38.58   2
       189    574.6152    485.9540 300.2108126 +22.7074115     563.8831     72.00447      1.813     4.16     7.024851     20.30948     42.41497         9     0.953     0.685  19.25   3
       190    412.9873    488.7790 300.1595443 +22.6598141     342.3068      71.9678      1.400     4.46     6.790222     20.30948     44.97842         6     0.987     0.573 -27.75   0
       191    859.6727    486.8183 300.2994219 +22.7929986     4360.678     71.98614      1.635     3.27     6.373476     20.30948     374.6497        35     1.283     1.247  76.45   0
       192    520.2716    482.4287 300.1950233 +22.6901239     401.8506     71.98615      1.341     4.54     7.041119     20.30948     51.42057         7     1.040     0.563 -23.55   0
       193    951.7810    477.6210 300.3311529 +22.8179174     709.8889     71.98614      1.507     3.79     6.777521     20.30948     74.71637        12     1.055     0.867  42.68   0
       194     91.4868    476.9990 300.0633170 +22.5600932     913.2741      71.8944      1.740     4.75     6.681588     20.30948     100.1484        15     1.448     0.947 -20.80   0
       195    752.6194    470.7336 300.2712467 +22.7563312     246.0354     71.94946      1.363     4.36     6.432742     20.30948     42.38807         8     0.993     0.821  41.63   0
       196    691.7155    461.3956 300.2552851 +22.7354146     430.7506     71.91276      1.403     3.15     6.702682     20.30948       54.014        10     0.914     0.753  43.18   0
       197    581.4238    459.4903 300.2215229 +22.7018449      372.274     71.91276      1.401     3.69     6.911153     20.30948     36.33788         6     0.940     0.416 -19.22   0
       198    301.2074    459.4225 300.1342695 +22.6178940     151.9952      71.9678      1.254     4.29     6.401978     20.30948      34.3448         5     1.097     0.494  -0.01   0
       199    633.5379    457.3043 300.2384754 +22.7168208     735.7579     72.07776      1.492     3.42      6.80574     20.30948     73.18124        14     1.032     0.894 -63.13   0
       200    422.1438    455.5416 300.1731823 +22.6530081     120.7601     72.05945      0.990     4.07     6.854278     20.30948     38.88276         5     0.967     0.690 -77.10   0
       201    947.5916    449.6455 300.3389244 +22.8086173     540.9404     72.00448      1.795     5.64     6.691004     20.30948     51.87557        13     1.322     0.960  61.87   0
       202    693.8140    449.5443 300.2597854 +22.7326359     954.9921      71.9678      1.620     3.42      6.64434     20.30948     107.0735        15     1.178     0.808 -24.53   0
       203    851.1318    445.8426 300.3100553 +22.7786592      993.197      71.9678      1.473     3.13     6.372288     20.30948     97.25724        14     0.995     0.921  -1.46   0
       204    835.4791    442.1390 300.3063734 +22.7729097     747.3351     72.05945      1.624     3.48     6.372288     20.30948     79.09771        12     1.031     0.774   7.40   0
       205    579.7032    439.9977 300.2273122 +22.6957274     3109.337      71.8944      1.468     2.84     6.830564     20.30948     363.8579        28     1.189     1.085  26.03   0
       206    940.1790    438.8945 300.3400995 +22.8033070     469.3524     71.91276      1.405     3.98      6.63573     20.30948      61.4918        11     1.104     0.862 -17.95   0
       207    420.0522    426.9175 300.1818190 +22.6441576     438.3076      72.0228      1.652     4.31     6.856346     20.30948      37.5029         8     0.854     0.655  37.94   0
       208    351.2279    426.8098 300.1604232 +22.6235113     289.0793     71.98614      1.536     4.41     6.500916     20.30948     35.33382         5     0.806     0.686  34.33   0
       209    991.1351    419.5303 300.3622901 +22.8129819     1168.894      72.0228      1.533     3.19     6.734787     20.30948     130.2534        19     1.155     1.051  15.49   0
       210    862.9354    419.2232 300.3223762 +22.7745360     505.5238      71.9678      1.461     3.54     6.372288     20.30948     55.78748         9     0.884     0.708  55.57   0
       211    949.7669    418.0365 300.3498606 +22.8001759     1034.746     72.00447      1.704     5.08      6.63396     20.30948     89.93462        18     1.384     1.069 -30.87   0
       212    690.2873    414.0187 300.2702133 +22.7213670     932.9467     71.93111      1.336     3.08     6.518004     20.30948     119.6926        14     1.043     0.801  33.75   0
       213    486.2046    414.0734 300.2065912 +22.6602790     489.4062     71.93111      1.756     4.38     6.854404     20.30948      54.4189         8     0.993     0.705  77.64   0
       214    194.3244    411.9244 300.1164197 +22.5722276     599.5635     72.07776      1.687     3.87     6.487013     20.30948     61.24866        11     1.015     0.867  -0.40   0
       215    256.6711    407.5612 300.1372354 +22.5896548     3837.136     71.94946      1.632     3.10      6.39608     20.30948      449.737        35     1.324     1.235  81.90   0
       216    989.7930    406.5513 300.3660825 +22.8088465     4394.014     71.98614      1.708     3.32     6.699438     20.30948     408.7167        37     1.359     1.308  10.96   0
       217    203.7894    402.2902 300.1224901 +22.5722967     7743.683     71.93111      1.703     3.29     6.485713     20.30948     741.4395        46     1.410     1.332  54.13   0
       218    969.8207    397.5383 300.3627717 +22.8002787     1958.297     71.94946      1.797     3.71      6.65219     20.30948     170.9649        28     1.324     1.242  63.12   0
       219    344.6752    396.6648 300.1681634 +22.6128882     4860.169     72.04113      1.596     2.90     6.425574     20.30948     563.1445        38     1.284     1.235 -15.94   0
       220    588.8663    393.4916 300.2452573 +22.6851037     18395.08     72.13268      1.507     2.73      6.54285     20.30948     2205.595        63     1.370     1.289  18.77   0
       221    606.3741    393.5842 300.2506840 +22.6903719      857.397     72.00448      2.105     6.96     6.491847     20.30948     59.33973        17     1.703     0.798 -36.00   0
       222    582.5144    402.5934 300.2403247 +22.6858182     456.7292     71.91276      1.812     4.89     6.627851     20.30948     42.68496         8     1.312     0.517  19.46   0
       223    832.3237    390.0214 300.3222997 +22.7569771      262.757     71.98614      1.622     4.20     6.314418     20.30948     29.14789         5     1.089     0.463 -24.41   0
       224    785.6663    384.0733 300.3096741 +22.7413040     281.0041      72.0228      1.488     5.10     6.277996     20.30948     38.27121         8     1.123     0.655 -79.41   0
       225    462.9073    382.4023 300.2096090 +22.6442009     1541.121      71.8944      0.638     0.82     6.765353     20.30948     782.1511         6     0.491     0.388 -83.88   0
       226    209.0123    380.6329 300.1311409 +22.5676415     354.6649      71.9678      1.591     4.52     6.500532     20.30948     29.09042         6     0.851     0.683 -25.05   0
       227    922.4429    376.3507 300.3548569 +22.7800095     792.7589      72.0228      1.773     3.17     6.542771     20.30948     79.21503        15     1.054     0.953  81.11   0
       228    143.5334    373.3155 300.1131440 +22.5459205     2045.743     72.09607      1.734     3.26     6.577229     20.30948     222.3395        26     1.262     1.191  55.70   0
       229    529.5971    362.9342 300.2367007 +22.6585750     6715.217     72.00447      1.495     2.75     6.576519     20.30948      763.529        38     1.261     1.165  56.67   0
       230    943.3037    363.5888 300.3655083 +22.7825791     1184.153      71.8944      1.616     3.13     6.585629     20.30948     126.1686        19     1.183     1.095 -74.03   0
       231    244.4979    362.4949 300.1480666 +22.5730630     664.3887     72.16927      1.625     2.72     6.440139     20.30948     69.36078        10     0.936     0.696 -14.80   0
       232    102.7903    355.4590 300.1062637 +22.5285838     427.1891     71.94946      1.282     3.92       6.6678     20.30948     56.53978         8     1.121     0.564 -31.62   0
       233    789.4251    354.8773 300.3203180 +22.7340324     298.5292     72.00447      1.519     4.98     6.226589     20.30948     26.86111         7     0.970     0.723 -39.57   0
       234    733.7229    352.0959 300.3038469 +22.7165629     1140.508     72.11438      1.493     3.20     6.172305     20.30948     103.3106        17     1.121     0.920  46.67   0
       235    643.3088    353.1620 300.2753100 +22.6898079        456.2      71.9678      1.422     4.05     6.218461     20.30948     59.87423         8     0.966     0.596  32.27   0
       236    436.1947    349.0859 300.2120961 +22.6266271       6343.4     71.91276      1.491     2.90      6.45374     20.30948     612.6072        36     1.277     1.152  65.84   0
       237    925.7370    343.9526 300.3663950 +22.7716747     712.6603     72.00447      1.752     4.32     6.547749     20.30948     52.28669        11     0.956     0.849  34.83   0
       238    828.3119    343.5808 300.3361136 +22.7424195     1389.705     71.93111      1.629     3.08     6.246788     20.30948     146.2997        20     1.187     1.039 -28.99   0
       239    420.7615    338.4008 300.2107552 +22.6189348     387.4389     72.00448      1.297     2.73     6.324434     20.30948     67.48941         7     0.916     0.468  10.73   0
       240    503.3882    336.3389 300.2371615 +22.6430835     436.8029     71.94946      1.414     2.68      6.61914     20.30948     45.48042         6     0.794     0.517 -42.04   0
       241    781.6021    335.1804 300.3242669 +22.7260266     278.5348     71.91276      1.594     3.60     6.237423     20.30948      28.8229         5     0.991     0.376   4.92   0
       242    483.7964    333.5464 300.2319637 +22.6364148     210.4392      71.9678      1.328     3.50      6.70342     20.30948     46.71545         7     0.982     0.684   0.45   0
       243    801.0397    331.2098 300.3316182 +22.7307009     497.5959     71.98614      1.494     5.21      6.26365     20.30948     49.88296         9     0.941     0.813  -5.79   0
       244    323.7989    328.2810 300.1838461 +22.5869879     2483.156     71.87605      1.540     3.00     6.274054     20.30948     281.4062        26     1.161     1.140   7.78   0
       245     42.4848    325.7070 300.0971604 +22.5019688      1129.98     72.16927      1.858     3.26     6.992831     20.30948     116.2251        19     1.233     1.032  28.70   0
       246    671.6231    323.8391 300.2936483 +22.6898517     183.6919      72.0228      1.256     3.55     6.219152     20.30948     35.20465         5     1.005     0.362  -3.97   0
       247    293.0938    317.6536 300.1777348 +22.5747378     30352.23     72.04113      1.622     2.97     6.275252     20.30948     3237.142        78     1.482     1.348  57.88   0
       248    827.9059    315.4935 300.3450971 +22.7342190     1415.115     72.15097      1.553     3.10     6.284403     20.30948     143.3873        21     1.141     1.054 -13.10   0
       249    743.1552    304.5297 300.3222165 +22.7057063     555.4011     71.94946      1.425     3.22     6.225973     20.30948     76.56181        10     1.011     0.665 -76.05   0
       250    391.7360    303.2079 300.2131300 +22.6001291     581.0563      71.9678      1.630     3.17     6.277637     20.30948     81.13017        11     0.982     0.905 -89.08   0
       251    167.8813    304.2292 300.1431248 +22.5333732     452.3403     72.00447      1.521     2.87     6.554916     20.30948     46.19567         8     0.801     0.670  46.41   0
       252    703.5519    297.6421 300.3121000 +22.6918741     2028.247     72.00448      1.612     2.83     6.222024     20.30948     209.3293        27     1.225     1.137 -41.90   0
       253    511.5562    292.6840 300.2538644 +22.6329804      375.599     71.94946      1.407     3.12     6.401712     20.30948      49.3429         6     0.864     0.464  -1.62   0
       254    918.7643    290.7856 300.3814629 +22.7542923     516.2647     71.98614      1.341     3.06     6.504235     20.30948     71.84133        10     1.050     0.728  59.69   0
       255    365.3041    282.0987 300.2117449 +22.5861475     2192.474     72.16927      1.756     3.56     6.271993     20.30948     204.6299        27     1.379     1.117  57.12   0
       256    578.1093    281.5901 300.2782003 +22.6497139      221.403     71.93111      1.348     3.45     6.319972     20.30948     32.37663         5     0.774     0.444 -19.52   0
       257    804.2509    274.9616 300.3508621 +22.7154824     529.8091     71.98614      1.622     5.24     6.318098     20.30948      59.3182        10     1.167     0.761  43.55   0
       258    686.6705    272.8659 300.3148707 +22.6796969     462.0037      72.0228      1.569     5.74     6.226312     20.30948     41.02947        11     1.160     0.800  48.43   0
       259    655.1238    272.5051 300.3051521 +22.6701522      251.004     72.13268      1.337     2.29     6.239398     20.30948     45.50572         5     0.723     0.467 -18.91   0
       260    441.2329    261.4830 300.2420750 +22.6029576     1170.966     71.94946      1.437     2.85     6.300071     20.30948     132.5182        20     1.130     1.055  65.68   0
       261    952.7357    257.6799 300.4028022 +22.7549274     271.5352     72.09607      1.501     4.05     6.454066     20.30948     37.55205         5     1.016     0.462   4.19   0
       262    181.8694    256.9649 300.1628022 +22.5239865     272.5469     71.98614      1.354     2.85     6.622842     20.30948     44.65093         5     0.780     0.498 -32.23   0
       263    686.0753    253.4674 300.3209752 +22.6739399     2286.012     72.05945      1.540     2.93     6.230688     20.30948     256.6322        25     1.181     1.124  75.60   0
       264    947.4178    248.1656 300.4042272 +22.7505990     2948.824     71.98614      1.586     3.15     6.419484     20.30948      299.269        30     1.247     1.163  -1.81   0
       265    294.6648    246.1224 300.2014186 +22.5546549     538.9439     72.07776      0.603     0.84     6.697538     20.30948       365.93         6     0.526     0.442  54.44   0
       266   1009.0611    243.1447 300.4251000 +22.7675892     477.5496     72.05945      1.653     5.45     6.490916     20.30948     37.78125         8     1.149     0.729  -5.24   0
       267    394.4948    237.3298 300.2353501 +22.5820215     646.9514     72.09607      1.450     2.62     6.251347     20.30948     71.26963        11     0.864     0.823  -5.82   0
       268   1016.9243    235.9774 300.4298791 +22.7678777     1677.598     71.98614      1.745     3.71      6.49648     20.30948     144.4317        27     1.388     1.207 -17.50  16
       269     99.8760    231.1933 300.1456525 +22.4920208     667.1415     71.91276      1.726     4.19      6.55545     20.30948     66.05141        12     1.209     0.945 -35.90   0
       270     69.3830    231.0448 300.1362177 +22.4828428     1483.956     72.00447      1.974     4.37     6.709341     20.30948     109.7982        27     1.422     1.315 -40.10   0
       271    962.9659    228.7964 300.4153609 +22.7496750     495.4511     71.98614      1.495     4.68     6.393345     20.30948     53.85275         9     1.272     0.496  15.50   0
       272    153.4751    223.2963 300.1648841 +22.5058086     579.4205     72.13268      1.767     6.02     6.553829     20.30948     50.73681        11     1.202     0.950 -36.50   0
       273    948.4949    221.4267 300.4132329 +22.7432263     242.4623     71.91276      1.367     4.09      6.35476     20.30948     38.01992         5     0.978     0.489   5.22   0
       274    829.7308    217.3046 300.3775059 +22.7065178     464.3732     72.11438      1.860     3.96     6.316875     20.30948     42.25816         6     0.787     0.569 -46.06   0
       275    757.8109    215.0363 300.3558060 +22.6843499     682.2347     71.98614      1.487     3.83     6.301935     20.30948     68.90846        13     1.094     0.862 -31.78   0
       276    348.3520    214.4419 300.2284024 +22.5616271     357.1806     72.00448      1.305     3.46      6.33269     20.30948     45.46682         7     0.945     0.486  -7.15   0
       277    855.9591    204.0366 300.3899908 +22.7105458     2133.861     72.07776      1.565     3.23     6.315753     20.30948     211.3553        27     1.261     1.130  72.17   0
       278    274.4435    201.0439 300.2097382 +22.5356453     2186.493     72.05945      1.639     2.91     6.982582     20.30948     212.4578        28     1.270     1.176  52.04   0
       279    352.3575    196.4550 300.2354801 +22.5576566     1131.619     71.98615      1.607     3.06     6.298227     20.30948      107.263        16     1.124     0.859 -18.35   0
       280    104.6192    196.2995 300.1584387 +22.4834182     393.0941      71.8944      1.695     4.56      6.68921     20.30948     52.81372         8     1.243     0.673  54.10   0
       281    754.2706    196.0863 300.3608450 +22.6778393     533.5338     72.09607      1.314     2.76     6.281715     20.30948     71.09978        11     0.979     0.673  17.94   0
       282    861.2244    192.9403 300.3952309 +22.7089277     415.2723     71.98614      1.529     3.12     6.315537     20.30948     47.80981         8     0.844     0.643  41.17   0
       283    169.2336    188.5650 300.1810446 +22.5005505      694.823      72.0228      1.603     3.40     6.559057     20.30948      84.3442        13     1.140     0.811 -31.79   0
       284    707.2348    185.4024 300.3496395 +22.6606937     1734.116     71.94946      1.570     2.82      6.23838     20.30948     209.0727        24     1.246     1.052 -85.55   0
       285    772.0914    185.4555 300.3698495 +22.6801122     580.6777     72.04113      1.608     3.12     6.288975     20.30948     70.44323         9     0.962     0.697  26.78   0
       286    191.0252    181.5809 300.1900880 +22.5050705     654.4464     72.00447      1.756     3.90     6.714086     20.30948     64.90061        13     1.095     0.903 -58.93   0
       287    978.5408    178.1149 300.4366535 +22.7397458     812.3261     72.09607      1.655     4.00     6.414532     20.30948     79.16396        14     1.163     0.977 -67.72   0
       288    480.7234    177.8784 300.2814796 +22.5907449     378.0051     72.09607      1.226     2.94     6.319119     20.30948     55.15768         8     0.910     0.629 -29.39   0
       289    711.0595    176.2853 300.3537875 +22.6592154     904.7114     72.09607      1.907     5.34     6.233375     20.30948     82.74209        16     1.628     0.908  87.52   0
       290    631.6312    176.1373 300.3290710 +22.6354073     1271.383     72.00447      1.517     3.23      6.27883     20.30948     129.8205        18     1.085     1.027  62.66   0
       291    452.9652    172.6207 300.2745368 +22.5809244     476.8257     72.00447      1.544     4.72     6.307843     20.30948     44.49756         9     1.026     0.616 -50.37   0
       292    839.0609    167.0886 300.3966952 +22.6948598     836.2487     72.05945      1.475     3.23     6.316487     20.30948     75.64655        12     0.930     0.881  85.70   0
       293    827.0271    167.8137 300.3927055 +22.6914691     1254.904     71.98614      1.418     3.04     6.317004     20.30948     149.6908        16     1.041     0.921  18.18   0
       294    557.7520    167.9672 300.3086924 +22.6109493     961.9928      72.0228      1.398     2.97     6.333376     20.30948     124.2128        15     1.065     0.850  19.99   0
       295    885.2997    165.6153 300.4116012 +22.7082651     301.2027      71.8944      1.224     4.62     6.316228     20.30948     42.68015         7     0.932     0.651 -77.29   0
       296   1000.1697    157.8725 300.4499676 +22.7403862     1641.485     71.98614      1.678     3.37     6.499915     20.30948     149.9875        26     1.329     1.117 -36.95   0
       297    955.8307    157.3368 300.4362987 +22.7269744     1128.284     72.00447      1.606     3.45     6.394136     20.30948     115.8472        19     1.144     1.090 -69.33   0
       298    189.6179    150.1649 300.1998321 +22.4956218     638.5207     71.98614      1.601     4.22      6.76306     20.30948     67.90627        11     1.105     0.727   4.57   0
       299     51.5653    144.5319 300.1587179 +22.4526544     2197.397     71.98615      1.837     3.47     6.979924     20.30948     223.3822        29     1.358     1.263  22.42   0
       300    875.0880    142.4286 300.4159296 +22.6985383     793.7678     71.98614      1.639     3.53     6.311216     20.30948     72.01599        13     1.065     0.868 -75.66   0
       301    209.1249    137.8657 300.2098873 +22.4979292     5660.726     72.05945      1.655     3.16     6.911124     20.30948      563.972        44     1.411     1.349  46.51   0
       302    190.7815    139.0374 300.2038001 +22.4927727     315.8423     71.98614      1.245     3.78     6.840624     20.30948     32.16337         5     0.829     0.496 -28.11   0
       303   1008.1403    125.8547 300.4628334 +22.7335522     18279.21     72.04113      1.726     3.45     7.051324     20.30948     1684.935        63     1.532     1.409 -76.50   0
       304    192.6120    128.8232 300.2076797 +22.4903857     572.9379     71.98614      1.601     3.75     6.909472     20.30948     68.08862        12     1.115     0.752  28.89   0
       305    956.9814    118.6831 300.4491854 +22.7161922     2869.321     71.94946      1.688     3.34     6.632165     20.30948     270.0321        33     1.416     1.231 -82.10   0
       306    853.3763    119.8198 300.4164816 +22.6855386     3732.659     71.98614      1.635     3.20     6.295685     20.30948     323.7151        34     1.310     1.254 -77.23   0
       307    402.8059    115.1550 300.2775380 +22.5493882     685.1905     71.98614      1.687     3.58     6.357191     20.30948     66.01485         9     0.969     0.643  -6.24   0
       308    155.6377    115.5527 300.2004766 +22.4754996     359.2707      72.0228      1.416     4.49     7.014938     20.30948     47.96555         6     0.956     0.638 -19.85   0
       309    328.9873    106.2707 300.2574316 +22.5247365     961.8456     72.00447      2.244     7.54     6.696531     20.30948     76.40444        15     2.447     0.651 -16.55   0
       310     92.3887    103.5366 300.1846968 +22.4531044     701.1254     71.93111      1.854     6.98     7.102359     20.30948     73.34077        14     1.491     0.916  35.57   0
       311    453.9767    102.1183 300.2976998 +22.5609557     1787.378     71.94946      1.513     3.03     6.313601     20.30948      179.631        23     1.236     1.039  45.82   0
       312    381.9701    102.8829 300.2750261 +22.5396230     494.7553     72.00447      1.352     3.78     6.442547     20.30948     67.70917         8     0.960     0.648  -4.52   0
       313    515.8759    101.6674 300.3171297 +22.5793507     422.0392     72.07776      1.267     1.84      6.31716     20.30948     68.24622         5     0.688     0.435  19.82   0
       314    198.1209     97.3704 300.2195852 +22.4829964     403.2814     71.98614      1.099     3.03     7.084274     20.30948     64.69477         5     0.921     0.353 -45.71   0
       315    742.3111     92.4138 300.3907148 +22.6444342     464.7584     71.93111      1.703     2.77     6.263196     20.30948     49.52366         5     0.692     0.481  12.07   0
       316    888.3315     87.3701 300.4379048 +22.6866521     322.9127      71.9678      1.372     3.45     6.320998     20.30948     34.82996         5     1.021     0.337 -21.05   0
       317   1018.6149     83.1776 300.4799336 +22.7243968     3578.052     71.98614      1.737     3.32      7.67731     20.30948     361.6175        37     1.429     1.290  83.20  16
       318    735.1768     82.8404 300.3915917 +22.6395456     253.5753      72.0228      1.213     2.83     6.343634     20.30948     49.69976         6     0.742     0.620   7.39   0
       319    228.1029     81.7286 300.2339825 +22.4874782     6190.572     72.09607      1.715     3.36     6.872806     20.30948     611.6234        41     1.456     1.289  54.14   0
       320     79.4368     81.3409 300.1878600 +22.4428480     792.9159     72.00448      2.232     3.42     7.131156     20.30948     74.35912        15     1.189     0.988 -11.04   0
       321    857.7608     79.9089 300.4307825 +22.6753632     254.6634     71.98614      1.089     3.36     6.278401     20.30948     47.79488         7     0.892     0.654  77.90   0
       322    199.7887     75.7996 300.2270929 +22.4772964     366.2065     71.80255      1.641     4.34      6.99726     20.30948     49.40477         7     0.999     0.538  26.73   0
       323    243.6392     73.4721 300.2414923 +22.4897567     339.8115      71.9678      1.388     3.13     6.807219     20.30948     41.03078         5     0.886     0.495  -5.23   0
       324    474.2383     67.3061 300.3152906 +22.5570085     6330.122     71.98615      1.584     2.79     6.292432     20.30948     673.2902        39     1.318     1.223  59.38   0
       325    359.6688     67.1297 300.2796658 +22.5226682     606.2878     72.04113      1.556     2.98     6.547435     20.30948     74.35789        12     0.963     0.828 -22.26   0
       326    531.2649     62.1251 300.3347364 +22.5725830      351.753     72.04113      1.624     3.79      6.28261     20.30948     45.44902         5     0.962     0.467 -26.49   0
       327    668.4399     58.9600 300.3785183 +22.6127121     309.7233     72.05945      1.502     4.09     6.582011     20.30948     30.46082         5     0.983     0.624   1.75   0
       328    726.5222     57.2268 300.3971912 +22.6295867     725.3397     71.98615      1.430     3.78     6.568723     20.30948     82.26198        13     1.169     0.816  58.81   0
       329    818.9006     55.9874 300.4264080 +22.6568576     450.2143      71.8944      1.310     4.15     6.257624     20.30948     52.30418         9     1.054     0.642  43.54   0
       330    167.3845     50.7785 300.2251168 +22.4604025     405.6754      71.9678      1.475     5.25     7.200666     20.30948     46.74023        10     0.983     0.791  43.35   0
       331    526.0079     50.2286 300.3369524 +22.5675882     372.5313     71.98614      1.257     2.39     6.269204     20.30948     51.54098         5     0.763     0.472 -61.69   0
       332    602.6271     47.4274 300.3617379 +22.5897063     6185.171     71.94946      1.573     2.65     6.369699     20.30948     776.9272        40     1.314     1.230  84.32   0
       333    377.7127     46.1529 300.2920799 +22.5220376     1517.528      71.9678      1.694     3.26     6.518813     20.30948     174.9002        25     1.398     1.195 -86.76   0
       334    643.6644     45.0100 300.3753133 +22.6012872     801.5276      71.9678      1.472     3.60     6.549039     20.30948      111.012        15     1.200     0.799  45.45   0
       335    659.8827     41.0399 300.3816557 +22.6049964      654.358     71.94946      1.765     3.32     6.646315     20.30948     69.21265        10     0.999     0.722 -36.52   0
       336    929.7390     38.8842 300.4665374 +22.6850752     395.5163     72.11438      1.343     3.33     6.566042     20.30948     54.36193         8     0.937     0.822 -43.58   0
       337    126.5532     38.6066 300.2163579 +22.4446780     671.6705     72.00448      1.699     4.22     7.252101     20.30948     69.93127        12     1.033     0.884  71.39   0
       338    969.5097     38.4498 300.4790932 +22.6968396     218.8704     71.98615      1.103     4.37     7.038301     20.30948     33.59417         5     1.265     0.429 -34.53   0
       339    698.3970     36.5453 300.3951205 +22.6152234     431.3405     71.93111      1.362     3.33     6.735438     20.30948     56.91992         8     1.026     0.497  -2.00   0
       340    661.8670     31.1855 300.3854667 +22.6027547     963.6322      71.9678      2.020     5.33     6.709796     20.30948     81.45577        18     1.633     0.926  50.96   0
       341    646.8564     32.3553 300.3804079 +22.5986012      2774.72     72.00447      1.563     2.75     6.614536     20.30948     327.4429        27     1.229     1.135  52.84   0
       342    288.0312     33.0541 300.2684023 +22.4914277     423.1165     72.00447      1.244     2.94      6.47712     20.30948     48.01723         7     0.861     0.524 -51.77   0
       343    733.3636     23.9088 300.4101183 +22.6220452     1584.511      71.9678      1.677     3.34     6.839194     20.30948     142.4704        23     1.229     1.096 -70.66   0
       344    275.8042   1013.0105 299.9465152 +22.7691772     336.0035     71.82093      1.627     5.69     20.46206     20.30948     59.17036        17     1.395     1.341 -77.53   0
       345    111.0206   1008.5385 299.8967086 +22.7184567     1556.063     71.94946      3.614    12.92      90.9156     20.30948     61.63833        43     3.189     1.456 -31.47  16
       346     49.5356     16.2371 300.1996509 +22.4151861     598.7756     71.98615      1.722     5.09     7.201446     20.30948      56.1736         7     1.312     0.694  18.49   0
       347    180.5874    986.6087 299.9254770 +22.7330405     4222.532     71.87605      9.664    37.95     66.66959     20.30948     77.66776       386     8.030     4.978  89.99  19
       348    199.6225    985.0359 299.9319099 +22.7383001     5056.561     72.00447     10.153    41.00     60.12119     20.30948     91.54527       490     9.492     4.915 -55.85  19
       349    155.8201    992.3578 299.9159035 +22.7272587     1588.638      72.0228      6.313    11.16     76.33337     20.30948     58.71792        35     2.322     1.495 -66.51   3
       350    155.6758   1000.4736 299.9132192 +22.7295428     2421.412     72.05945      5.091    17.68     83.51783     20.30948     66.50462        65     4.230     2.054  30.74  19
