#   1 NUMBER                 Running object number                                     
#   2 X_IMAGE                Object position along x                                    [pixel]
#   3 Y_IMAGE                Object position along y                                    [pixel]
#   4 ALPHA_J2000            Right ascension of barycenter (J2000)                      [deg]
#   5 DELTA_J2000            Declination of barycenter (J2000)                          [deg]
#   6 FLUX_APER              Flux vector within fixed circular aperture(s)              [count]
#   7 FLUXERR_APER           RMS error vector for aperture flux(es)                     [count]
#   8 FLUX_RADIUS            Fraction-of-light radii                                    [pixel]
#   9 FWHM_IMAGE             FWHM assuming a gaussian core                              [pixel]
#  10 BACKGROUND             Background at centroid position                            [count]
#  11 THRESHOLD              Detection threshold above background                       [count]
#  12 FLUX_MAX               Peak flux above background                                 [count]
#  13 ISOAREA_IMAGE          Isophotal area above Analysis threshold                    [pixel**2]
#  14 A_IMAGE                Profile RMS along major axis                               [pixel]
#  15 B_IMAGE                Profile RMS along minor axis                               [pixel]
#  16 THETA_IMAGE            Position angle (CCW/x)                                     [deg]
#  17 FLAGS                  Extraction flags                                          
         1    741.8071     14.7057 300.4198906 +22.6054958     452.7851     69.37968      1.239     3.57     -7.79338      19.6041     48.76667         7     0.833     0.628  72.49   0
         2    326.5449      4.0828 300.2940663 +22.4780376     234.5564     66.42753      1.393     4.77    -8.441153      19.6041     38.26637         7     0.955     0.677 -29.64  16
         3     88.6036   1015.7489 299.8913018 +22.6968605     1354.908     69.48595     12.592    17.28     11.32521      19.6041      39.8474        38     3.108     2.671  45.20  19
         4    637.2056   1021.4515 300.0600608 +22.8632505     4090.833     64.51149      1.108     1.90      -13.285      19.6041     697.7447        24     0.992     0.874  68.51  27
         5    642.7771   1019.2050 300.0625274 +22.8642785     4554.048     69.46825      1.159     1.88    -13.26453      19.6041     851.3685        27     1.029     0.905 -69.79  18
         6    204.9437   1020.5127 299.9258977 +22.7331794     2751.449     67.67476     11.837    31.11     5.368749      19.6041     82.03193       218     5.807     4.628  15.33  27
         7    242.2317   1010.1225 299.9408713 +22.7414034     4635.867     69.46825     10.078    33.75    -3.344967      19.6041     107.6092       592     9.404     5.410  56.38  27
         8    223.6885   1018.7532 299.9322966 +22.7383063     3414.863     69.46825      8.343    27.58     1.223472      19.6041     68.58714       264     5.542     4.258  42.14  27
         9    180.3206   1020.9924 299.9180894 +22.7259196     787.3507     66.13065      2.853     4.83     10.46091      19.6041     30.70933         5     2.017     0.328  67.20  19
        10     75.6131   1016.3317 299.8870769 +22.6931240     1297.038     69.50365     12.386    13.51     6.300376      19.6041     50.41456        35     3.630     1.398  11.79  19
        11     80.2559   1021.6729 299.8867794 +22.6960492     1711.279     63.72508      8.673    12.33     9.149703      19.6041     53.64656        41     2.450     1.726 -25.13  27
        12     89.7686   1023.3744 299.8891801 +22.6993951     837.8445     55.67012      4.762     6.31     13.52848      19.6041     35.45605        10     1.713     0.653   1.90  27
        13     71.3804   1021.7574 299.8839951 +22.6934064     1208.531     63.33793      8.984    10.35     5.442389      19.6041     46.58015        22     2.066     1.517  34.35  27
        14     60.6895   1006.7379 299.8855663 +22.6858914     1687.611     69.57439     15.402    24.58   -0.7284949      19.6041     47.70766        86     5.545     3.025 -14.78  27
        15     76.6016    953.0408 299.9079945 +22.6752892     1835.313     69.48595     21.820    29.65    -6.196911      19.6041     46.91825       185     8.153     2.993 -81.03   3
        16     64.1039    993.4974 299.8909387 +22.6831244     2031.107     69.66272     19.136    26.59    -1.775867      19.6041     49.75241       141     4.944     3.972  36.17  19
        17    170.0976   1009.3196 299.9187144 +22.7195037     945.3806     69.60973      6.156     7.94     9.850471      19.6041     49.65028        12     1.843     0.957  59.63   3
        18    117.8371   1011.5964 299.9017355 +22.7044547     529.6577     69.52134      4.794     4.88     12.91958      19.6041     33.83885         5     1.126     0.599  61.36   0
        19    170.5963   1014.0153 299.9173401 +22.7209990     1133.686     69.34422      4.696     8.09     10.76059      19.6041     55.80318        18     1.792     1.195 -20.23  19
        20     65.2041    966.9384 299.8999291 +22.6758464     1561.102     69.48595     15.102    17.87    -5.483122      19.6041     54.46541        67     5.030     1.763 -70.67   3
        21     84.9429    988.3808 299.8990777 +22.6879202     2613.641     69.48595     25.025    47.79     3.104767      19.6041     63.28362       516     9.590     6.610  64.32  19
        22    151.0655    992.0959 299.9184100 +22.7088509     532.9458     69.59206      2.056     4.50     7.523611      19.6041     28.42883         7     1.578     0.365 -36.41   0
        23    655.5362    988.6192 300.0764628 +22.8593350     3327.878     69.46825      1.126     2.07    -12.95747      19.6041     488.0117        21     0.966     0.859  38.13   0
        24    177.8210   1023.3608 299.9165413 +22.7258472      830.631     55.78047      3.823     5.90     11.28491      19.6041     46.20492         9     1.603     0.612  23.89  27
        25    246.6200    982.7586 299.9511471 +22.7348795     136.7882     69.52135      0.930     2.14    -6.680556      19.6041     50.59688         5     0.684     0.460  72.07   0
        26    564.1204    979.2829 300.0510418 +22.8292189     700.2706     69.60973      1.117     2.01    -12.86817      19.6041     129.8207         9     0.818     0.612 -22.99   0
        27    102.8804    975.9916 299.9086842 +22.6897602      1055.85     69.43284      7.188     7.71     2.938002      19.6041     36.59705        12     1.757     0.946 -76.07   3
        28    176.5394   1016.4955 299.9183790 +22.7234951     849.1453     69.57439      5.071     4.82     10.02272      19.6041     31.19039         5     1.137     0.579  56.84  17
        29    929.9937   1005.1394 300.1566011 +22.9464245      357.227     69.43284      1.132     2.54    -13.06276      19.6041     85.62238         9     0.983     0.539  89.13   0
        30    457.7824    975.9623 300.0190299 +22.7963435     494.1071     69.48595      1.311     2.50    -12.94411      19.6041     78.16267         7     0.697     0.673 -80.86   0
        31    388.5096    973.9517 299.9981348 +22.7749675       3291.7     69.48595      1.132     1.88    -12.88469      19.6041     540.0073        25     0.976     0.941   6.49   0
        32    115.3225    972.3031 299.9137506 +22.6924415     895.3765     69.60973      4.989     6.22     2.017338      19.6041     39.47857         9     2.073     0.525 -65.18   2
        33    111.7946    973.1953 299.9123641 +22.6916371     787.4866     69.34422      6.887     7.23     2.239808      19.6041     26.18421         8     2.138     0.685   6.83   3
        34     95.6455    961.7676 299.9110685 +22.6835111     1131.386     69.53903      9.811     9.90    -1.355477      19.6041     49.16864        21     2.098     1.303 -57.99   1
        35     83.9432    955.3932 299.9095089 +22.6781689     1864.493     69.48595     16.862    19.96    -4.889729      19.6041      48.2053        79     4.105     2.696  52.01   3
        36    934.6609    952.3880 300.1752374 +22.9326835     1149.527     69.45055      1.186     2.04    -12.86775      19.6041      167.597        13     0.906     0.748 -18.41   0
        37    723.7593    941.3635 300.1131007 +22.8662511     391.5763     69.57439      1.593     5.47    -12.56432      19.6041      48.3893         9     1.384     0.609  53.62   0
        38     98.7781    938.8721 299.9194965 +22.6778922     1139.823     69.50365      6.396    10.15       -7.756      19.6041     34.15345        16     2.659     1.079  27.78   2
        39    758.1914    935.5049 300.1257350 +22.8749012     484.0824     69.37968      1.074     2.33    -12.53723      19.6041     85.02304         7     0.720     0.662 -74.57   0
        40    535.4286    936.2250 300.0561327 +22.8082575     156.8988     69.48595      1.114     3.39    -12.50973      19.6041     28.46975         5     0.735     0.453  69.93   0
        41    780.5922    929.3159 300.1347296 +22.8798458     5620.477     69.41512      1.060     1.79    -12.47268      19.6041     985.6486        27     0.948     0.893  53.84   0
        42    825.8593    928.9937 300.1489403 +22.8933333     145.6437     69.45055      1.046     2.29    -12.47268      19.6041     57.54945         5     0.771     0.466  38.33   0
        43    971.6609    928.6469 300.1945058 +22.9369650     273.3264     69.52135      1.197     2.50    -12.91478      19.6041     45.85403         5     0.722     0.435  20.13   0
        44    484.9720    917.9659 300.0463753 +22.7878752     373.0419     69.50365      1.327     4.39    -12.51411      19.6041     41.67444         6     1.393     0.395 -45.99   0
        45     76.5050    973.3093 299.9013647 +22.6810671     2204.452     69.66272     18.604    25.79    -2.106812      19.6041     59.98071       166     7.026     2.628 -24.62   3
        46     87.5560    944.2353 299.9142642 +22.6760575     1683.056     69.53903     16.814    22.01     -7.13824      19.6041     46.11795        84     5.378     2.501  67.59   3
        47    972.3157    910.3645 300.2006631 +22.9319127     256.3239     69.46825      1.249     3.22    -12.83204      19.6041     55.21867         5     0.968     0.386  73.02   0
        48    789.2021    911.1468 300.1433284 +22.8772148     608.3723     69.45055      1.077     1.93    -12.43874      19.6041     149.0396         9     0.910     0.617 -49.28   0
        49    827.2137    904.7357 300.1572610 +22.8867776     402.1377     69.45055      1.029     1.85    -12.43123      19.6041     72.69064         6     0.665     0.545 -43.26   0
        50    875.5605    896.2013 300.1751084 +22.8988295     313.2789     69.50365      1.277     4.23    -12.44105      19.6041     36.16787         7     1.065     0.479  82.08   0
        51    726.8742    895.2430 300.1290881 +22.8539521     258.1852     69.46825      1.095     2.60    -12.37581      19.6041     62.13887         7     0.795     0.597  24.39   0
        52    439.5641    891.6067 300.0408285 +22.7666849     2138.589     69.50365      1.100     1.93    -12.43312      19.6041     348.1652        18     0.973     0.782  41.10   0
        53    738.0975    892.0483 300.1336244 +22.8564026     248.4416     69.52134      0.918     1.97    -12.37806      19.6041     71.17538         5     0.597     0.557 -84.15   0
        54    165.0312    877.2328 299.9601474 +22.6801298       382.25     69.50365      1.065     2.25     -10.6857      19.6041     69.20461         7     0.812     0.548 -25.34   0
        55    141.9599    874.4604 299.9538810 +22.6724056     831.7917     69.48595      1.134     2.15    -11.04632      19.6041     148.4735        11     0.968     0.662  76.94   0
        56     73.2773    875.4070 299.9322358 +22.6520460      231.354     69.41512      0.926     3.11    -11.84022      19.6041       35.767         5     0.710     0.474  14.14   0
        57   1013.6066    863.0295 300.2289519 +22.9307029     1042.143     69.48595      1.093     2.03    -12.86944      19.6041     191.3376        12     0.834     0.774  16.26   0
        58    967.8221    861.5182 300.2151650 +22.9165410     1088.311     69.45055      1.103     3.20     -12.5959      19.6041     178.4757        12     1.052     0.646  58.07   0
        59    751.4186    855.2801 300.1497441 +22.8498472       265.07     69.48595      0.991     2.26    -12.31547      19.6041     58.12815         5     0.700     0.441  65.95   0
        60    619.5686    849.6694 300.1105050 +22.8086795     2417.292     69.46825      1.126     1.99    -12.14782      19.6041     382.0882        22     0.998     0.886  66.33   0
        61    109.3188    850.5224 299.9515313 +22.6557409     217.3987     69.59206      1.136     3.67    -11.66956      19.6041     45.77197         5     1.055     0.431 -37.62   0
        62    421.5602    846.8491 300.0497968 +22.7484447     430.2862     69.52135      1.235     2.46     -12.1969      19.6041     51.97226         6     0.749     0.488 -80.58   0
        63    169.6970    843.6526 299.9725272 +22.6719062     633.5883     69.55672      1.170     2.55    -11.52914      19.6041     110.7963        12     0.894     0.822  59.14   0
        64    639.9394    842.3129 300.1192426 +22.8126810     446.4145     69.57439      1.333     2.22      -12.162      19.6041     75.90414         8     0.773     0.674  85.82   0
        65    795.5659    829.3329 300.1719453 +22.8556424     1998.373     69.48595      1.047     1.84    -12.32423      19.6041     350.1641        16     0.884     0.761  62.35   0
        66   1012.5088    829.2774 300.2395966 +22.9206814     504.7633      69.6274      1.016     1.91    -12.50444      19.6041     102.3976         6     0.682     0.493  79.77   0
        67    204.0581    824.3239 299.9894963 +22.6766844     307.2903     69.52135      1.286     3.16    -11.63667      19.6041     40.09196         6     0.862     0.543 -87.59   0
        68    512.1755    821.8190 300.0861391 +22.7684627     307.7682     69.50365      1.055     2.55    -11.92876      19.6041     54.63992         8     0.761     0.688  33.12   0
        69    158.9309    819.9532 299.9768946 +22.6618796     347.2599     69.46825      1.065     2.18    -11.62643      19.6041     94.61979         7     0.818     0.517  47.99   0
        70    308.6571    812.1358 300.0259795 +22.7045965     25945.14     69.53903      1.166     2.00    -11.70382      19.6041      4349.63        57     1.120     1.030  59.70   0
        71    574.1628    814.8367 300.1077059 +22.7850611     216.6889     69.55672      1.157     3.74    -11.82207      19.6041     47.69844         6     0.761     0.608  73.64   0
        72    566.5374    811.0224 300.1065734 +22.7816786     792.0641     69.46825      1.077     2.16    -11.78945      19.6041     133.9624        10     0.854     0.652  30.45   0
        73    979.2679    809.7375 300.2355893 +22.9051042     489.1627     69.53903      1.130     2.49    -12.31618      19.6041     92.69801         8     0.847     0.625 -24.36   0
        74    595.5071    807.2570 300.1168176 +22.7892908      474.931     69.53903      1.263     2.42    -11.74666      19.6041     78.40208         9     0.882     0.679 -67.21   0
        75    606.3827    805.5123 300.1207714 +22.7920533     477.5816     69.43284      1.404     4.13    -11.73508      19.6041     52.48586         7     0.915     0.606  69.24   0
        76    711.8691    801.3444 300.1549788 +22.8225037     262.6118     69.50365      1.064     2.12    -12.26929      19.6041      56.6328         5     0.671     0.592  80.33   0
        77    749.2959    791.7125 300.1697726 +22.8309656      351.929     69.66272      1.096     2.42    -12.21783      19.6041     71.81789         7     0.812     0.582  63.59   0
        78    372.8116    789.9766 300.0531418 +22.7175008     948.1996     69.48595      1.171     2.15    -11.59319      19.6041     165.7668        12     0.851     0.762  10.30   0
        79    358.3810    789.3540 300.0488562 +22.7129905     15363.14     69.52135      1.141     2.03    -11.56189      19.6041     2391.019        44     1.076     1.008  71.23   0
        80    881.3176    785.0942 300.2130692 +22.8686591     1219.146     69.64507      1.110     1.80    -12.14531      19.6041     270.2419        13     0.853     0.735  50.14   0
        81    639.3538    781.0912 300.1389851 +22.7949376     537.8848     69.46825      1.124     2.12    -11.74006      19.6041     87.04593         7     0.702     0.620  71.00   0
        82    240.8485    781.1338 300.0149863 +22.6753488      309.922     69.48595      1.102     2.77    -11.51706      19.6041     54.76138         7     0.853     0.514 -46.44   0
        83     45.7504    776.5923 299.9558434 +22.6154592     292.7897     69.48595      1.087     4.14    -12.02527      19.6041     38.94032         7     1.071     0.458 -49.78   0
        84    486.3299    776.0082 300.0930039 +22.7475645       461.14     69.46825      1.427     2.17      -11.528      19.6041     61.35071         7     0.698     0.629  84.30   0
        85    887.5211    772.6850 300.2190413 +22.8669562     325.1573     69.60973      0.992     2.81    -12.00242      19.6041      50.2258         5     0.858     0.482  79.39   0
        86    238.6397    765.7186 300.0193155 +22.6702657     318.8269     69.45055      1.107     2.90    -11.41655      19.6041     44.61835         6     0.693     0.643 -52.56   0
        87    531.3913    753.7576 300.1142678 +22.7547024     327.6107     69.50365      1.171     4.02    -11.48547      19.6041     42.08855         7     0.951     0.487  87.52   0
        88    947.7822    750.2081 300.2451434 +22.8785692     2166.497     69.43284      1.103     1.89     -11.4585      19.6041      426.776        20     0.978     0.840  78.85   0
        89    553.4626    751.2655 300.1219487 +22.7606098     700.8618     69.52135      1.216     1.99    -11.48328      19.6041     130.2676        11     0.858     0.736 -71.69   0
        90    936.1605    741.6481 300.2443049 +22.8726268     900.4419     69.52134      1.186     1.88    -11.35173      19.6041     154.4325         9     0.738     0.648  66.43   0
        91    299.3082    736.0129 300.0478415 +22.6799603      509.848     69.43284      1.221     2.43    -11.16817      19.6041     73.98689         8     0.873     0.597  84.36   0
        92    762.4386    733.0598 300.1929525 +22.8180706      1359.41     69.50365      1.172     2.00    -11.72784      19.6041     207.2896        15     0.885     0.824  75.24   0
        93    967.3231    731.8645 300.2572055 +22.8791589     698.8577     69.57439      0.996     1.76    -11.19093      19.6041     165.3655        11     0.801     0.705  19.37   0
        94    147.8309    719.7742 300.0060401 +22.6298274      388.432     69.48595      1.256     4.26    -11.55852      19.6041     63.22605         8     1.237     0.506  38.14   0
        95    844.5994    718.7314 300.2232175 +22.8385942     234.0305     69.45055      0.953     2.59    -11.58257      19.6041     44.94893         5     0.705     0.458  71.07   0
        96    880.9817    709.9343 300.2374201 +22.8469764     71586.23     69.46825      1.175     1.85    -11.41075      19.6041     14824.16        95     1.169     1.064  64.51   0
        97    643.3863    713.8259 300.1621267 +22.7768422     192.0157     69.48595      1.077     2.83    -11.11441      19.6041     32.08093         5     0.719     0.458 -72.72   0
        98    733.1013    710.2997 300.1912172 +22.8027384     382.1836     69.71566      1.167     3.49    -11.46327      19.6041     55.07658         7     0.965     0.555 -18.89   0
        99    567.3848    698.8797 300.1433253 +22.7497539     682.5685     69.50365      1.137     2.14    -10.85191      19.6041     114.2238        11     0.901     0.683  63.88   0
       100    748.4375    696.1279 300.2006053 +22.8032690     4654.275     69.45055      1.130     1.91    -11.31959      19.6041     795.3856        24     1.008     0.858  75.19   0
       101    250.0619    691.4268 300.0470344 +22.6523907     2369.752     69.48595      1.196     2.04    -11.17503      19.6041     402.2204        20     0.972     0.894  75.61   0
       102    332.0851    689.4266 300.0731882 +22.6764368     611.1851     69.46825      1.290     2.19    -11.11895      19.6041     92.18021         9     0.834     0.630 -68.46   0
       103    207.6387    687.1406 300.0352416 +22.6384264     304.9773     69.50365      1.130     2.09    -11.23782      19.6041     53.34673         6     0.695     0.578  27.60   0
       104    540.3530    685.0278 300.1394165 +22.7376692     409.8584     69.50365      1.144     2.16    -10.70064      19.6041     79.59048         9     0.848     0.637  28.31   0
       105    531.9807    677.1322 300.1393787 +22.7328916     1616.206     69.46825      1.261     2.12    -10.58295      19.6041     261.2541        18     1.016     0.808  54.74   0
       106    522.2109    670.7238 300.1384222 +22.7281216     756.1841     69.48595      1.204     2.15    -10.51783      19.6041     107.8193        10     0.784     0.733  66.07   0
       107    185.4072    667.1578 300.0348313 +22.6260220     260.5156     69.50365      1.139     2.58    -11.23674      19.6041     52.64949         6     0.741     0.593 -35.14   0
       108    225.2431    662.2752 300.0488007 +22.6365802     270.6806     69.46825      1.342     3.45    -11.16246      19.6041     46.65875         7     0.948     0.592  72.83   0
       109    447.0150    660.6501 300.1182982 +22.7026702     859.4529     69.52135      1.142     1.93    -10.68633      19.6041     142.3071        12     0.875     0.727 -56.89   0
       110    101.0835    655.6915 300.0123587 +22.5974181     9543.225      69.6274      1.246     2.19    -11.11254      19.6041     1431.335        37     1.102     0.993  67.98   0
       111   1022.4819    657.3918 300.2986359 +22.8742992     383.8903     60.08968      0.995     2.82    -11.09836      19.6041     79.14938         5     0.708     0.453  67.24  16
       112     21.8196    657.1517 299.9872632 +22.5740361     290.0423     69.50365      1.204     2.68    -10.68029      19.6041     53.28731         8     0.778     0.672  38.03   0
       113    531.9817    655.7701 300.1463271 +22.7267613     475.1009     69.46825      1.165     2.43    -10.43337      19.6041     84.11958        10     0.860     0.696  87.26   0
       114    949.8442    641.9634 300.2809999 +22.8480969     484.5157     69.53903      1.057     1.68    -10.92806      19.6041     128.6659         8     0.744     0.581  58.81   0
       115     47.0298    639.8812 300.0007092 +22.5766552     893.2684     69.48595      1.915     4.70    -10.79544      19.6041      82.2699        13     1.260     0.679 -81.29   0
       116    816.4869    639.7971 300.2401320 +22.8074986     211.9191     69.41512      1.078     2.29    -10.86106      19.6041     39.88503         5     0.699     0.453 -66.58   0
       117    889.9012    634.6019 300.2647046 +22.8280149     357.6041     69.37968      1.176     3.37     -10.8274      19.6041     46.49721         5     0.767     0.428  21.88   0
       118    452.0779    628.6293 300.1302871 +22.6950010     443.1616     69.48595      1.246     2.80    -10.44384      19.6041     64.22647         7     0.840     0.630 -55.98   0
       119    600.2109    627.2722 300.1768352 +22.7390480     196.9978     69.50365      1.373     4.17    -10.29208      19.6041     44.23328         6     0.997     0.669  -5.76   0
       120    647.3207    625.6553 300.1920303 +22.7527128     303.1273     69.52135      1.365     4.29    -10.43727      19.6041     35.81057         6     0.885     0.713   0.76   0
       121    617.5168    625.4440 300.1828182 +22.7437136     237.7829     69.45055      1.278     3.59    -10.32276      19.6041     41.70259         6     0.951     0.390  68.91   0
       122    496.2861    624.6116 300.1453504 +22.7071108     473.7242     69.43284      1.284     2.69    -10.33162      19.6041     56.26747        10     0.840     0.784  57.97   0
       123    140.9735    622.9124 300.0354117 +22.5999949     4038.044     69.46825      0.419   -12.31    -11.06148      19.6041     3595.017         6     0.405     0.372  81.10   0
       124    929.8423    619.9626 300.2819183 +22.8357818     1517.121     69.57439      1.114     1.81    -10.73796      19.6041     324.0286        14     0.838     0.773  37.02   0
       125    461.8397    619.8629 300.1361753 +22.6954141     995.2801     69.48595      1.416     2.13    -10.37009      19.6041     139.3337        12     0.880     0.742 -62.81   0
       126     23.8133    613.8369 300.0019672 +22.5622172     2443.134     69.48595      1.264     2.30    -10.73811      19.6041     348.3445        18     1.011     0.847  62.66   0
       127    325.2307    606.9007 300.0978950 +22.6507057     4336.451     69.46825      1.260     2.24    -10.45034      19.6041     632.9109        26     1.058     0.946  53.44   0
       128    447.6561    603.9370 300.1369407 +22.6865886     4443.271     69.53903      1.271     2.19    -10.26484      19.6041     648.3058        28     1.108     0.944  61.71   0
       129    859.2054    597.7451 300.2671218 +22.8082271     905.1303     69.48595      1.202     2.18    -10.62722      19.6041      141.353        10     0.840     0.675  51.99   0
       130    943.8056    595.0295 300.2943802 +22.8328041      6161.09     69.48595      1.171     1.90    -10.69615      19.6041     1163.259        30     0.993     0.946  60.90   0
       131    508.1408    593.4601 300.1591694 +22.7017264     5594.072     69.55672      1.259     2.25     -10.1051      19.6041     775.9596        28     1.090     0.936  65.77   0
       132    235.6108    588.8653 300.0758945 +22.6186366      652.978     69.43284      1.308     2.34    -11.00815      19.6041     110.1638        12     0.947     0.716  40.14   0
       133    439.8671    581.7322 300.1417369 +22.6778797     2076.752     69.53903      1.262     2.17    -10.06046      19.6041     325.0211        21     1.004     0.908  79.11   0
       134    782.5582    581.5703 300.2484936 +22.7806048      420.364     69.52135      1.399     3.40    -10.54283      19.6041     67.17113         9     0.920     0.847 -42.50   0
       135    417.9784    579.9109 300.1355190 +22.6707902     519.5152     69.41512      1.294     2.05    -10.04235      19.6041     87.05545         8     0.752     0.640 -30.29   0
       136    172.4928    579.5200 300.0593147 +22.5970118     426.1731     69.59206      1.317     2.98    -11.11523      19.6041      46.0919         6     0.863     0.437  19.00   0
       137    859.5503    576.9229 300.2739998 +22.8023496     933.5515     69.48595      1.478     2.75    -10.55325      19.6041     124.9139        14     1.114     0.776 -58.91   0
       138    556.4507    569.1904 300.1820974 +22.7092503     100123.5     69.48595      1.269     2.22    -9.892149      19.6041     13262.96       132     1.312     1.250  61.98   0
       139    740.1518    573.8491 300.2377913 +22.7656738     320.3761     69.52134      1.184     2.24    -10.44213      19.6041     71.50908         8     0.810     0.596  45.97   0
       140    242.5919    569.2349 300.0844467 +22.6151006     1626.963     69.48595      1.232     2.24    -10.95307      19.6041     236.9204        18     1.028     0.863  77.73   0
       141    808.9597    564.9883 300.2621124 +22.7837569     308.1664     69.46825      1.702     3.65     -10.4771      19.6041     29.49272         5     0.652     0.586  -0.33   0
       142    447.0163    549.3909 300.1544757 +22.6707425     1194.717     69.41512      1.273     2.55    -9.753033      19.6041     177.2691        16     0.969     0.871  81.88   0
       143    843.8436    535.5781 300.2825460 +22.7857652       758.02     69.53903      1.110     2.24    -10.34759      19.6041     135.4827        13     0.900     0.748  38.96   0
       144    715.2133    533.2532 300.2432202 +22.7465387     1221.426     69.50365      1.233     2.28    -9.957855      19.6041     181.1689        15     0.930     0.802 -86.34   0
       145    959.4016    530.2519 300.3203048 +22.8188663     223.9866     69.45055      1.002     3.50      -10.414      19.6041      32.8877         5     0.777     0.456  73.35   1
       146    619.6268    529.8516 300.2145555 +22.7169022     203.3524     69.50365      1.092     3.51    -9.825036      19.6041     28.29666         5     0.813     0.437  72.38   0
       147    502.6672    529.2948 300.1783263 +22.6816669     390.9065      69.6274      1.406     2.43    -9.693902      19.6041     46.03334         6     0.677     0.623  34.91   0
       148    972.5065    527.0441 300.3254345 +22.8218714     650.9361     69.48595      1.134     2.41    -10.41258      19.6041     111.1471        11     0.892     0.755 -73.10   0
       149    958.4464    526.2301 300.3213144 +22.8174244     364.8963     69.50365      1.219     3.46    -10.39334      19.6041     62.45812         8     0.922     0.764 -70.44   0
       150    844.3120    525.4064 300.2859986 +22.7829836     1065.971      69.3974      1.496     4.20    -10.25314      19.6041     151.1653        17     1.481     0.776  81.16   0
       151    597.6359    524.3527 300.2094957 +22.7087291     318.0102     69.50365      1.164     3.37    -9.789074      19.6041     46.67096         7     0.911     0.572 -54.93   0
       152    882.4149    520.6838 300.2994111 +22.7930465      2002.89     69.45055      1.096     2.01    -10.26384      19.6041     324.1618        16     0.926     0.808  75.18   0
       153    974.0526    511.1326 300.3310891 +22.8177623     434.3868     69.50365      1.275     3.53    -10.33887      19.6041     65.49223         7     0.981     0.601  25.52   0
       154    114.5147    511.0858 300.0635441 +22.5599814     490.7633     69.60973      1.254     2.93    -10.68818      19.6041     73.11018         6     0.759     0.616  73.26   0
       155    107.1808    500.5995 300.0646736 +22.5547724     181.2412     69.41512      1.193     3.65     -10.5835      19.6041     27.97441         5     1.016     0.377  85.32   0
       156    655.9276    491.4253 300.2383502 +22.7167523     353.6781     69.50365      1.273     2.23    -9.720799      19.6041     53.43427         6     0.737     0.494   1.61   0
       157    716.5126    483.5824 300.2597702 +22.7326627     346.1862     69.43284      1.478     2.88    -9.709634      19.6041     45.55788         6     0.820     0.493   1.52   0
       158    873.8921    479.5093 300.3101377 +22.7786625     611.2075     69.64507      1.375     2.00    -9.917137      19.6041     87.72434         8     0.754     0.642 -53.86   0
       159    602.4439    474.1845 300.2272987 +22.6957657     1570.327     69.50365      1.236     2.23    -9.650703      19.6041      211.729        18     1.036     0.863 -81.91   0
       160   1013.8048    452.9236 300.3624069 +22.8129431     614.9271      69.3974      1.175     2.02    -10.29252      19.6041      107.622        10     0.815     0.680   1.37   0
       161    972.1893    451.7580 300.3498059 +22.8001409     501.3018     69.48595      1.175     2.64    -10.17031      19.6041     84.40397         9     0.887     0.640  28.04   0
       162    508.5821    449.1758 300.2062064 +22.6604400     88.97965     69.48595      1.195     4.46    -9.495737      19.6041     24.44248         5     1.161     0.488  86.18   0
       163    713.1037    447.9842 300.2702772 +22.7214160      611.702      69.3974      1.314     2.70    -9.499802      19.6041     90.23921        10     0.897     0.701  39.48   0
       164    216.7432    446.3993 300.1163349 +22.5721028     354.8698     69.41512      1.510     4.93    -9.943999      19.6041     37.70172         9     1.104     0.625  31.44   0
       165    279.4757    442.0836 300.1372398 +22.5896859     1758.017     69.57439      1.294     2.34    -9.565692      19.6041      227.095        18     1.050     0.830  68.53   0
       166   1012.4102    440.1697 300.3661166 +22.8088595     2105.503     69.48595      1.083     2.05    -10.29691      19.6041     362.5358        16     0.872     0.785  74.62   0
       167    226.6438    436.9957 300.1224679 +22.5723752     3770.375     69.50365      1.319     2.23    -9.793032      19.6041     545.4162        28     1.101     0.999  67.81   0
       168    992.4302    431.3921 300.3627370 +22.8003513     832.6345     69.48595      1.117     2.19    -10.22805      19.6041     147.9892        11     0.866     0.697  73.79   0
       169    367.4017    431.0725 300.1681615 +22.6129014     2340.812      69.3974      1.306     2.21    -9.379058      19.6041      312.004        23     1.046     0.987  46.48   0
       170    611.5278    427.6714 300.2452420 +22.6851319     8969.103     69.53903      1.302     2.33    -9.382061      19.6041     1198.788        36     1.125     1.037  55.65   0
       171    627.8227    427.9793 300.2502161 +22.6901055     366.4436     69.48595      1.590     2.90    -9.382061      19.6041     39.66883         7     0.707     0.693  21.61   0
       172    944.9909    410.0197 300.3548870 +22.7799968     294.2801     69.46825      1.277     2.63    -9.986901      19.6041     54.60225         7     0.878     0.489  44.76   0
       173    166.3692    408.0096 300.1131511 +22.5459732     1007.984     69.48595      1.297     2.31    -9.748674      19.6041     132.7489        13     0.911     0.771  63.05   0
       174    552.2072    397.1297 300.2366963 +22.6585762     3048.638     69.45055      1.321     2.51    -9.355366      19.6041     404.3791        25     1.131     0.941  75.76   0
       175    965.7053    397.3021 300.3654789 +22.7825470     485.9397     69.66272      1.119     2.78    -10.05737      19.6041     76.43971        11     0.940     0.692  89.51   0
       176    266.7481    396.3414 300.1481440 +22.5727404     329.2378     69.53903      1.461     4.09    -9.290967      19.6041     50.34019         8     0.944     0.645  14.32   0
       177    124.6192    390.0918 300.1059982 +22.5283048     283.6799     69.41512      1.396     5.18    -9.759545      19.6041     35.38342         7     1.313     0.576  72.47   0
       178    756.3906    386.1042 300.3038692 +22.7166133     557.8768     69.41512      1.345     2.17    -9.295698      19.6041     85.85806         7     0.751     0.596  28.02   0
       179    458.8273    383.4175 300.2120876 +22.6266398     3115.775     69.48595      1.327     2.46    -9.280436      19.6041     392.3912        26     1.090     1.031  47.29   0
       180    948.3792    377.6256 300.3664684 +22.7717010     262.3067     69.46825      1.065     2.85    -9.851646      19.6041     50.50452         6     0.876     0.628  65.16   0
       181    850.8488    377.5147 300.3360970 +22.7424499     544.7434     69.46825      1.094     2.34    -9.414367      19.6041     108.9852        11     0.912     0.705 -73.10   0
       182    443.3915    371.9183 300.2110201 +22.6187094     350.3953     69.43284      1.662     5.47    -9.279344      19.6041     33.09934         7     1.056     0.800  56.62   0
       183    525.8434    369.7457 300.2373858 +22.6428079     348.2125     69.50365      1.447     4.37    -9.255185      19.6041     29.43381         6     0.969     0.560  67.13   0
       184    506.5916    367.4728 300.2321319 +22.6363832     139.5721     69.46825      1.052     4.17    -9.253519      19.6041     28.52985         5     1.017     0.489 -86.56   0
       185    823.7177    365.5547 300.3315259 +22.7308838     270.0024     69.45055      1.363     5.03    -9.340158      19.6041     31.55896         7     0.926     0.782  58.58   0
       186    346.3754    362.5948 300.1838680 +22.5869385     1298.468     69.46825      1.407     2.54    -8.965699      19.6041     157.4316        20     1.123     0.978  47.18   0
       187     64.7417    360.1119 300.0971337 +22.5017360     440.7414     69.55672      1.219     3.04    -9.701989      19.6041     76.03422        11     1.036     0.704 -88.40   0
       188    315.7461    352.1959 300.1777199 +22.5747669     14284.26     69.46825      1.336     2.35    -8.903382      19.6041     1927.067        45     1.190     1.092  71.53   0
       189    850.2646    349.4716 300.3450248 +22.7342158     620.2993     69.52135      1.132     2.45    -9.371474      19.6041     91.78111        10     0.834     0.744 -89.49   0
       190     12.1089    340.2169 300.0872474 +22.4802340     2385.691     69.41512      1.292     2.32     -9.63356      19.6041      350.459        20     1.009     0.898  45.73   0
       191    190.0069    338.6821 300.1430172 +22.5331713     211.7562     69.41512      1.041     3.57     -9.58346      19.6041     32.73041         6     0.898     0.520  89.76   0
       192    413.9298    337.3575 300.2130795 +22.5999518     256.2339     69.45055      1.236     4.20    -9.142087      19.6041     33.48085         6     0.775     0.649  50.25   0
       193    726.0443    331.6493 300.3121038 +22.6918734      934.674     69.52135      1.367     2.45    -9.248816      19.6041     128.6521        12     0.939     0.739  83.66   0
       194    941.2733    324.5094 300.3815069 +22.7543043      321.968     69.64507      1.152     3.14    -9.603827      19.6041     52.95647         7     0.943     0.476  10.86   0
       195    387.9518    316.6117 300.2117356 +22.5862054     1087.952     69.50365      1.470     2.72    -8.921767      19.6041     133.7279        17     1.146     0.844  28.91   0
       196    826.8195    309.0027 300.3508617 +22.7155610     275.8021     69.41512      0.933     1.80    -9.377617      19.6041     60.92037         5     0.721     0.438 -25.39   0
       197    463.6873    295.7148 300.2420858 +22.6029129     559.3983     69.60973      1.327     2.96    -8.950305      19.6041     73.64746        10     0.895     0.744  47.69   0
       198    708.5661    287.6539 300.3209473 +22.6739945     1043.607     69.50365      1.220     2.35    -9.266092      19.6041     143.0565        13     0.922     0.760  54.84   0
       199    969.8140    281.8035 300.4042772 +22.7505751     1534.836     69.34422      1.202     1.96    -9.560895      19.6041     283.8151        16     0.923     0.834  49.61   0
       200    416.6607    271.7141 300.2352468 +22.5819214     312.2956     69.59206      1.082     2.61     -8.80236      19.6041     51.26095         6     0.706     0.607 -21.37   0
       201     91.7619    265.8785 300.1361293 +22.4828050     648.8863     69.46825      1.364     3.08    -9.533716      19.6041     83.50428        11     0.897     0.851 -53.39   0
       202    985.9297    262.5896 300.4155428 +22.7498770     268.1614     69.46825      1.245     3.35    -9.558182      19.6041     54.51775         5     0.986     0.330  41.51   0
       203    878.0983    237.7398 300.3899872 +22.7104379     977.2512     69.55672      1.251     2.18    -9.483957      19.6041     173.6989        14     0.969     0.807  70.67   0
       204    296.8710    235.5436 300.2097307 +22.5356173      991.512     69.50365      1.337     2.43    -8.846576      19.6041     147.7643        16     1.009     0.866  37.09   0
       205    375.0581    230.7162 300.2356154 +22.5576749      520.173     69.59206      1.430     2.89    -8.857493      19.6041     73.18418        11     0.912     0.804  24.51   0
       206    776.9868    229.8154 300.3610454 +22.6778725     304.6914     69.43284      1.446     3.83    -9.245023      19.6041     31.44351         6     0.929     0.452  37.79   0
       207    191.6464    223.1288 300.1810475 +22.5004970     429.5474     69.46825      1.516     2.86    -9.229286      19.6041     57.84871         7     0.863     0.770 -83.22   0
       208    729.5044    219.4890 300.3496032 +22.6606796     908.6209     69.66272      1.335     2.52    -9.136913      19.6041     93.05296        12     0.849     0.840 -26.56   0
       209    794.0246    218.9322 300.3698881 +22.6798483     312.5028     69.46825      1.317     4.07    -9.202234      19.6041      58.8958         6     0.798     0.592  30.14   0
       210    213.1888    215.8542 300.1901051 +22.5048695     168.6787     69.48595      1.330     4.49    -9.150779      19.6041     31.74661         6     0.958     0.599  61.19   0
       211   1000.6390    211.8233 300.4366139 +22.7396836     459.0991     69.52134      1.215     2.79    -9.426979      19.6041     72.16582         8     0.822     0.639   3.86   0
       212    733.6852    210.7827 300.3537322 +22.6594299     279.5737     69.45055      1.298     3.93    -9.104444      19.6041     41.10905         6     0.999     0.521  57.07   0
       213    654.0168    210.4715 300.3290163 +22.6354708     485.8216     69.48595      1.314     3.42    -8.750231      19.6041     92.07643        11     1.172     0.699  34.81   0
       214    849.3805    201.5267 300.3927918 +22.6914258     708.1873     69.48595      1.177     2.82    -9.372833      19.6041     96.12249        10     1.023     0.602 -80.74   0
       215    580.0825    201.9794 300.3087499 +22.6108758      568.183     69.45055      1.439     2.93    -8.858034      19.6041     69.09753        11     0.985     0.718   3.40   0
       216    861.4868    200.2931 300.3969660 +22.6946971     516.1119     69.66272      1.480     4.47    -9.437934      19.6041     51.75067         9     1.054     0.743  57.10   0
       217   1022.1757    191.5192 300.4499234 +22.7402927     801.4429     61.58558      1.162     2.27    -9.277989      19.6041     129.0064        11     0.970     0.638  53.08  24
       218    978.0720    190.7972 300.4364010 +22.7268799     643.6542     69.43284      1.461     2.67    -9.270539      19.6041     83.32501        12     0.958     0.781  59.03   0
       219      2.2261    188.4871 300.1334403 +22.4337351     297.5094     58.76523      1.579     4.89    -8.785289      19.6041      30.2758         6     0.970     0.699  59.43  24
       220    212.2742    184.2531 300.2000784 +22.4955230     409.3405     69.50365      1.436     3.66     -8.99119      19.6041     41.72137         9     1.021     0.660  44.56   0
       221     74.1992    179.1706 300.1588201 +22.4526522     1136.837     69.45055      1.353     2.66    -9.080396      19.6041     137.6063        17     1.184     0.835  78.30   0
       222     23.8197    176.1722 300.1441438 +22.4366791     183.5978     69.48595      1.249     4.55    -8.802448      19.6041      42.6797         8     0.966     0.609  87.31   0
       223    897.2455    175.8998 300.4160324 +22.6983929     366.0347     69.50365      1.236     2.77    -9.303615      19.6041     54.03373         7     0.731     0.640 -77.47   0
       224    231.5499    172.5147 300.2098805 +22.4979331     2639.281     69.46825      1.303     2.34    -8.869483      19.6041     362.8206        25     1.086     1.007  71.54   0
       225     15.7725    167.0019 300.1446206 +22.4316334     478.0465     69.43284      1.298     3.19    -8.692739      19.6041     74.43315         8     0.934     0.593  35.24   0
       226    875.4495    153.6649 300.4164542 +22.6854725     1757.546     69.50365      1.273     2.32    -9.285931      19.6041     228.7698        18     1.027     0.903  44.75   0
       227    979.2478    152.5062 300.4491968 +22.7162200     1297.459     69.50365      1.180     2.22    -8.979008      19.6041     191.4291        14     0.866     0.852  34.33   0
       228    425.3494    149.2899 300.2776918 +22.5493645     287.0288     69.48595      1.259     2.27    -8.880265      19.6041     51.97246         5     0.706     0.450   6.27   0
       229    349.3515    141.3553 300.2566245 +22.5243046     263.2567     69.52135      1.182     4.18    -8.874911      19.6041     45.78347         5     1.116     0.447  80.61   0
       230    476.6283    136.2949 300.2978659 +22.5610005     849.8205      69.3974      1.341     2.63    -8.880265      19.6041     96.17071        16     1.009     0.881  61.77   0
       231    250.4873    116.4121 300.2339745 +22.4875021     2958.573     69.43284      1.290     2.40    -8.704028      19.6041     390.1285        23     1.092     0.949  68.45   0
       232    101.5783    115.6817 300.1879296 +22.4426402     401.4924     69.45055      1.137     2.78    -8.823749      19.6041     65.05009         7     0.868     0.540  32.38   0
       233    496.5315    101.6481 300.3153033 +22.5570107      3126.24     69.48595      1.330     2.39    -8.742534      19.6041     414.3475        23     1.095     0.949  73.84   0
       234    381.6789    101.5501 300.2795971 +22.5225615     310.0657     69.48595      1.134     2.68    -8.880265      19.6041     58.37098         7     0.833     0.630  65.42   0
       235    749.1780     90.9959 300.3974369 +22.6296379      517.972     69.45055      1.690     4.35    -8.531688      19.6041      47.5293         7     0.953     0.585  74.92   0
       236    624.8349     81.7174 300.3617146 +22.5897251     3028.072     69.45055      1.354     2.62    -8.239148      19.6041     386.8165        25     1.139     0.945  77.42   0
       237    400.0036     80.8574 300.2920118 +22.5221094     725.4262     69.45055      1.384     3.41    -8.763135      19.6041     84.94547        14     1.082     0.873  82.68   0
       238    665.8073     78.7593 300.3754350 +22.6011486     349.5274     69.52135      1.287     4.14    -8.280417      19.6041     46.24128         9     1.064     0.706  68.16   0
       239    148.4112     73.1215 300.2162910 +22.4444655     311.3909     69.46825      1.317     5.11    -8.659737      19.6041     41.34779         9     1.078     0.684  86.20   0
       240    669.0486     66.4393 300.3804418 +22.5985780     1412.462     69.52135      1.408     2.66    -8.185444      19.6041     161.5873        18     1.062     0.936  62.57   0
       241    684.0115     65.3379 300.3854598 +22.6027433     428.2097     69.45055      1.583     4.19    -8.195161      19.6041     40.75013         7     1.191     0.421  55.08   0
       242    755.5564     57.9184 300.4101564 +22.6220382     741.0823     69.45055      1.314     2.91    -8.266554      19.6041     99.66653        13     0.981     0.836 -35.39   0
       243    693.2761     51.5915 300.3928055 +22.6015665     293.8281     69.45055      1.475     3.44    -8.095199      19.6041     31.84206         5     0.723     0.472 -14.53   0
       244    499.2524     50.4759 300.3327526 +22.5431219     551.4376     69.48595      1.432     4.14    -8.303294      19.6041     65.31019        11     1.088     0.763 -71.52   0
       245     71.7189     50.5336 300.1997887 +22.4149829     371.9938     69.59206      1.626     4.81    -8.683794      19.6041     44.13763         7     1.090     0.602 -71.91   0
       246    402.8002     48.5930 300.3033491 +22.5136783     360.6342     69.30874      1.278     3.72    -8.525622      19.6041     54.39142         8     0.967     0.562  71.17   0
       247    741.9883     39.3285 300.4119597 +22.6126298      353.496     69.50365      1.362     4.22    -8.025122      19.6041     34.45138         6     0.909     0.559  89.57   0
       248    174.3477     38.9162 300.2354479 +22.4424202      1824.99     69.52135      1.297     2.47    -8.653605      19.6041     246.5814        18     1.017     0.853  72.77   0
       249    735.5247     30.7944 300.4127143 +22.6082404     332.5304     69.41512      1.178     3.24    -7.912913      19.6041     56.38735         8     0.953     0.605  49.26   0
       250    290.2618     30.9314 300.2740742 +22.4748753     589.9561     69.53903      1.361     2.88    -8.648317      19.6041     77.76606        10     0.900     0.721  -5.15   0
       251    773.4251     25.7145 300.4261716 +22.6181294     227.9528     69.45055      1.347     4.12    -8.133282      19.6041     31.52798         6     0.905     0.537  46.28   0
       252    793.5773     22.1610 300.4336044 +22.6231420     1166.629     69.52135      1.360     2.64    -8.275046      19.6041     138.2585        18     1.031     0.961  87.81   0
       253    498.5385     20.4564 300.3422683 +22.5342813      218.618     69.55672      1.200     4.29    -8.039145      19.6041     33.13808         6     1.160     0.452 -44.99   0
       254    176.6814     17.8659 300.2430011 +22.4370748     439.6024     69.59206      1.516     3.83    -8.653605      19.6041     46.35046        10     0.976     0.817  22.10   0
       255    968.4435     15.5386 300.4902697 +22.6735883     305.5318     69.48595      1.195     3.63    -8.372347      19.6041     46.49927         6     0.899     0.453 -15.61   0
       256    737.2736   1021.9888 300.0910517 +22.8934375     289.1006     62.43836      1.034     2.65    -13.37683      19.6041     54.42387         8     0.900     0.590  25.72  16
