#   1 NUMBER                 Running object number                                     
#   2 X_IMAGE                Object position along x                                    [pixel]
#   3 Y_IMAGE                Object position along y                                    [pixel]
#   4 ALPHA_J2000            Right ascension of barycenter (J2000)                      [deg]
#   5 DELTA_J2000            Declination of barycenter (J2000)                          [deg]
#   6 FLUX_APER              Flux vector within fixed circular aperture(s)              [count]
#   7 FLUXERR_APER           RMS error vector for aperture flux(es)                     [count]
#   8 FLUX_RADIUS            Fraction-of-light radii                                    [pixel]
#   9 FWHM_IMAGE             FWHM assuming a gaussian core                              [pixel]
#  10 BACKGROUND             Background at centroid position                            [count]
#  11 THRESHOLD              Detection threshold above background                       [count]
#  12 FLUX_MAX               Peak flux above background                                 [count]
#  13 ISOAREA_IMAGE          Isophotal area above Analysis threshold                    [pixel**2]
#  14 A_IMAGE                Profile RMS along major axis                               [pixel]
#  15 B_IMAGE                Profile RMS along minor axis                               [pixel]
#  16 THETA_IMAGE            Position angle (CCW/x)                                     [deg]
#  17 FLAGS                  Extraction flags                                          
         1    487.8795     14.4088 300.3327264 +22.5430729     374.3305      69.4134      1.105     2.11    -8.239196     19.59861     81.83092         9     0.800     0.665  66.44   0
         2    391.2911     12.5038 300.3032916 +22.5135952     307.0705     69.64321      1.146     3.06    -8.227435     19.59861      50.3511         7     0.831     0.613  73.64   0
         3    773.6013     10.8163 300.4228646 +22.6275867      248.047     69.36025      1.480     3.42    -8.675261     19.59861     30.05884         5     0.731     0.463  73.59   0
         4    162.9963      2.7329 300.2354783 +22.4423879     1789.876     61.04707      1.357     2.75    -8.564274     19.59861     222.7563        19     1.006     0.987 -30.15  24
         5    191.5691   1000.6009 299.9201286 +22.7372539     819.8643      69.4311      3.417     4.25     24.23382     19.59861     31.74561         5     0.980     0.525 -43.18   3
         6     70.1328    921.0938 299.9082859 +22.6780018     2153.509      69.6079     24.528    40.49     -7.84024     19.59861     53.10203       320     9.196     4.947 -20.52   3
         7     52.2458    963.4813 299.8889334 +22.6847757     2137.473      69.4488     22.553    38.62      -2.3765     19.59861     53.29879       284    10.292     4.022 -76.95  19
         8     71.4744    951.6827 299.8987459 +22.6871701     2964.046     69.57258     30.580    98.37   -0.4494552     19.59861     69.08912      1829    26.524    10.122  88.96  19
         9    631.3445    983.1983 300.0625836 +22.8642639     4589.785     69.39568      1.192     2.05    -13.48282     19.59861     713.7471        26     1.028     0.943 -80.56   3
        10    725.9675    986.2162 300.0910675 +22.8935154      403.581      69.4488      1.326     3.44    -13.44593     19.59861     61.47028         8     0.916     0.698  16.11   0
        11    170.2056    999.1990 299.9139468 +22.7304368     896.1801     69.28933      5.059    12.18      24.5358     19.59861     32.79931        10     3.459     1.194 -78.42  18
        12    158.5680    979.4102 299.9167738 +22.7212710     890.2758      69.4665      3.903    10.98     16.57725     19.59861     37.33913        14     2.412     1.393 -23.38   2
        13    167.2909    999.3002 299.9130083 +22.7295905     1249.333     69.62556      3.759     6.91     24.69481     19.59861     45.88544        10     2.627     0.509 -74.15   3
        14    167.5133    987.4004 299.9169518 +22.7262471     761.8965     69.36025      3.610     4.00     19.55264     19.59861     38.55608         5     1.035     0.442 -75.52   1
        15     74.4138   1019.5994 299.8775473 +22.7075125     4621.174     69.30707     11.762    40.64     21.15362     19.59861     84.01524       622     9.970     6.291 -15.80  27
        16    539.2291    990.3978 300.0315656 +22.8386903     1244.861      69.4134      1.154     1.98    -12.97322     19.59861      203.476        14     0.838     0.794  71.34   0
        17    191.7782    972.5829 299.9293156 +22.7292869     404.5609      69.4488      2.964     4.53     12.13654     19.59861     31.26871         5     1.457     0.401  11.84   0
        18    918.6940    969.2003 300.1566630 +22.9464294     458.5184     69.34253      1.169     3.52    -13.42514     19.59861     72.11691         7     0.952     0.578  69.34   0
        19    222.1804    999.2356 299.9300859 +22.7460546     497.6898     69.48419      1.933     6.56     21.77964     19.59861      33.3956        12     1.296     0.931   0.73   0
        20    100.4276   1015.5964 299.8869304 +22.7141792     3189.555      69.4311      5.195    23.71     32.18307     19.59861     71.78844       174     4.872     3.206  37.76  19
        21    347.5946    997.1981 299.9697366 +22.7831240     249.8007     69.28933      1.249     4.62    -13.68993     19.59861     35.43223         5     0.849     0.714  45.90   0
        22    163.6933    993.8603 299.9136617 +22.7269512     1399.812     69.55491      5.284     9.26     22.73995     19.59861      41.8876        19     1.945     1.231   9.17   3
        23    139.4620    956.7076 299.9182287 +22.7090275     692.0321     69.57258      2.287     3.79     7.298113     19.59861     40.19531         5     1.558     0.265 -44.49   0
        24    107.9090    956.6747 299.9084375 +22.6995426     441.3101      69.6079      2.011     3.44     7.298113     19.59861     40.50124         5     0.834     0.411  18.07   0
        25    644.0969    952.6617 300.0764964 +22.8593291     3338.495     69.55491      1.211     2.19    -13.02977     19.59861     522.9985        25     1.060     0.935  48.27   0
        26    135.0000    955.2290 299.9173239 +22.7072638     754.2356      69.4134      2.510     5.72     6.454555     19.59861     76.78144         7     1.785     0.555  73.95   2
        27    138.0415    954.3401 299.9185582 +22.7079224     806.7296      69.4488      6.190     8.14     6.032776     19.59861      31.4081         6     2.830     0.655  19.87   3
        28    192.5721    984.3913 299.9257179 +22.7329096     2033.955      69.4665      8.944    14.92     16.83107     19.59861     56.80363        60     2.847     2.174  50.42   3
        29    115.3982    950.7722 299.9126854 +22.7001002     821.5734      69.4134      7.645     6.41      4.76744     19.59861     41.27053         8     2.047     0.563  46.41   1
        30    230.3736    972.0561 299.9414813 +22.7407245     3672.473      69.4665      8.687    28.85     7.944816     19.59861     96.61765       378     7.681     4.539  58.89   2
        31    101.2143    937.4819 299.9126056 +22.6920321     1480.135      69.4488     13.805    15.11    -1.137465     19.59861     47.12517        33     3.235     1.963 -24.84   3
        32    377.0218    937.9581 299.9981742 +22.7749721     3172.013     69.50188      1.237     1.99    -12.67043     19.59861      565.691        22     0.970     0.926  22.66   0
        33    523.4232    946.8060 300.0408393 +22.8214444     278.7453      69.4488      1.176     3.44     -12.7862     19.59861     33.98176         5     0.738     0.464 -72.73   0
        34    552.4922    943.4852 300.0509672 +22.8292140     874.2029     69.62556      1.183     2.24     -12.7841     19.59861     123.2319        12     0.846     0.746  78.76   0
        35    409.6691    924.9451 300.0125643 +22.7810388     242.4872     69.50188      1.276     3.93    -12.68901     19.59861     44.49561         7     0.872     0.679 -21.15   0
        36    923.2617    916.4813 300.1752505 +22.9326642     1110.145     69.55491      1.186     2.25    -13.04994     19.59861     155.9438        14     0.866     0.838 -32.45   0
        37    446.2046    940.0961 300.0189973 +22.7963483     559.5119     69.37797      1.208     2.55    -12.83771     19.59861     98.48352        10     0.956     0.646 -17.60   0
        38    767.5247    910.3726 300.1287048 +22.8842146      126.301      69.4488      1.051     4.26    -12.65824     19.59861     26.43944         6     1.097     0.472 -80.59   0
        39    203.6143    991.4597 299.9268479 +22.7382511     1245.715      69.4311      7.575     8.89     19.24553     19.59861     51.37532        22     2.213     0.997 -43.57   3
        40    210.4928    983.2925 299.9316445 +22.7379757     2449.578     69.62556     12.606    26.18     15.40756     19.59861     62.70606       149     4.948     3.847 -60.85   3
        41    746.9352    899.4909 300.1258328 +22.8749170     447.9638     69.59025      1.014     2.03    -12.55786     19.59861     89.55241         8     0.752     0.633 -87.80   0
        42    769.1125    893.3075 300.1347542 +22.8797928     5532.182     69.62556      1.138     1.84    -12.53867     19.59861     1044.293        28     0.965     0.925  27.21   0
        43    959.9692    892.9264 300.1943626 +22.9369052     202.0742     69.48419      0.939     2.44    -13.01938     19.59861     54.98804         5     0.747     0.502 -30.33   0
        44    814.7679    893.5015 300.1489160 +22.8935388     130.3199      69.4488      0.934     2.82     -12.6271     19.59861     38.38875         5     0.726     0.435  25.15   0
        45    625.7079    985.4943 300.0600812 +22.8632314     4153.844     69.62556      1.172     2.04    -13.51285     19.59861     576.3191        27     1.032     0.980  80.33   3
        46    474.5769    881.3678 300.0469402 +22.7880179     79.02592      69.4665      1.136     4.18    -12.43001     19.59861     33.01579         5     0.991     0.503  44.54   0
        47    820.6245    880.3635 300.1550172 +22.8915235     191.3905     69.48419      0.894     3.21    -12.57912     19.59861     39.32355         5     0.734     0.458 -74.17   0
        48    777.7260    875.3150 300.1432939 +22.8772114     671.4785     69.59025      1.200     2.42    -12.42351     19.59861      103.085         9     0.831     0.683 -81.53   0
        49    960.4859    874.8564 300.2004053 +22.9318713     261.2369     69.57258      1.018     2.84    -12.95095     19.59861     47.36182         5     0.739     0.444 -67.10   0
        50    629.8172    872.4457 300.0981614 +22.8320297     306.1974     69.48419      1.215     3.50    -12.26651     19.59861     46.14188         5     0.744     0.476 -14.48   0
        51    815.8882    868.8766 300.1572799 +22.8868060     480.9064     69.59025      1.295     2.37    -12.49844     19.59861     70.99358         8     0.762     0.671 -44.84   0
        52    863.9968    860.2776 300.1750710 +22.8987609     287.7799     69.37797      1.100     2.30    -12.72452     19.59861     55.65303         5     0.757     0.467 -59.48   0
        53    715.5172    859.1362 300.1291808 +22.8539130     317.6607     69.57258      1.138     2.30    -12.27391     19.59861     62.29433         8     0.805     0.632 -35.33   0
        54    428.0626    855.6428 300.0408412 +22.7666823     2217.242      69.4665      1.173     1.97    -12.32865     19.59861     354.7955        20     1.012     0.917 -63.53   0
        55    726.8242    856.3170 300.1336201 +22.8564946     282.8645      69.4311      1.024     1.99    -12.27922     19.59861     62.83573         5     0.678     0.452 -12.60   0
        56    153.3640    841.3174 299.9601024 +22.6801278     351.3075      69.4488      1.163     2.34    -11.03671     19.59861     61.85623         6     0.692     0.618 -42.12   0
        57    130.7150    838.5876 299.9539540 +22.6725456     779.5991      69.4134      1.169     2.17    -11.20385     19.59861     104.0546        13     0.919     0.754  14.35   0
        58   1002.0878    827.2446 300.2288732 +22.9306670     1011.667      69.4488      1.142     1.86    -12.60285     19.59861     203.8238        13     0.840     0.756 -23.57   0
        59    956.4319    825.6598 300.2151520 +22.9165286     981.1631     69.50188      1.077     2.17    -12.54836     19.59861     172.4378        14     0.859     0.804 -54.51   0
        60    739.9040    819.7841 300.1495827 +22.8499306     407.6283     69.37797      1.193     1.58    -12.26365     19.59861     68.05991         6     0.661     0.506  56.63   0
        61    608.1819    813.7764 300.1105174 +22.8087049     2254.556     69.48419      1.080     1.83    -12.12968     19.59861     441.5126        18     0.873     0.819 -88.44   0
        62     97.7445    814.4688 299.9515590 +22.6557333     207.6625     69.50188      1.273     2.93    -11.68512     19.59861     34.66385         5     0.716     0.464 -19.71   0
        63    158.3375    807.7637 299.9725646 +22.6720016     542.3233     69.48419      1.133     2.94    -11.59506     19.59861     101.4163        10     0.900     0.716 -25.35   0
        64    784.1086    793.3987 300.1719391 +22.8556097      2103.61     69.37797      1.042     1.76    -12.18613     19.59861     404.4474        13     0.872     0.687  85.12   0
        65   1000.9443    793.3709 300.2395388 +22.9205951      558.572      69.4665      1.180     2.98     -12.2957     19.59861      82.1326        10     1.023     0.649  11.37   0
        66    500.9543    785.9476 300.0861968 +22.7685568     319.6219     69.50188      1.225     2.00    -12.09253     19.59861     67.64366         5     0.615     0.544 -88.34   0
        67    147.7112    784.1480 299.9769457 +22.6620412     460.8169     69.48419      1.130     2.28    -11.76296     19.59861     94.06058         9     0.850     0.641  27.09   0
        68    297.2475    776.1458 300.0260245 +22.7046273     26151.12     69.50188      1.188     1.92    -11.87801     19.59861     4533.224        57     1.123     1.060  75.66   0
        69    562.8610    779.2390 300.1076460 +22.7852008     306.5638      69.4665      1.000     1.90    -11.95741     19.59861     54.66499         6     0.691     0.534 -52.64   0
        70    554.9776    775.1864 300.1065106 +22.7816733     795.7314      69.4488      1.174     2.18     -11.9248     19.59861     182.5402        11     0.903     0.675  46.41   0
        71    968.0294    773.7728 300.2356510 +22.9051023     481.6519      69.4665      1.271     2.95    -12.24441     19.59861     90.16782         9     0.969     0.609 -59.17   0
        72    583.9059    770.8904 300.1169128 +22.7891167      463.625     69.62556      1.093     1.93    -11.86256     19.59861     106.0038         8     0.715     0.657 -49.68   0
        73    595.1100    769.2665 300.1209289 +22.7920108     401.3407     69.57258      1.175     1.85    -11.83591     19.59861      61.6838         6     0.686     0.520  64.32   0
        74    700.2953    765.8263 300.1548008 +22.8225653      248.803      69.4134      1.219     3.52    -11.86112     19.59861     45.15025         6     0.965     0.673 -41.80   0
        75    737.9703    755.8954 300.1697663 +22.8310102      265.864     69.39568      1.104     2.74     -11.7674     19.59861     74.79412         8     0.885     0.637  86.20   0
        76    346.9555    753.3798 300.0488859 +22.7130130     15389.27     69.51956      1.167     1.96    -11.81368     19.59861     2598.807        50     1.121     1.001  80.18   0
        77    361.2453    753.8690 300.0531707 +22.7174408     1035.582      69.4488      1.224     2.03    -11.82383     19.59861     166.0385        13     0.975     0.712 -38.76   0
        78    869.8581    748.8306 300.2131601 +22.8685169     1433.722     69.48419      1.192     1.96    -11.86029     19.59861     296.6802        15     0.958     0.809  44.30   0
        79    358.1579    747.4285 300.0543054 +22.7146670     327.8206     69.48419      1.219     1.94    -11.76523     19.59861     45.77024         5     0.673     0.457  22.71   0
        80    229.4783    745.1813 300.0150301 +22.6754096     364.7402      69.4665      1.075     2.62    -11.76514     19.59861     64.63714         7     0.887     0.494  84.24   0
        81    627.9120    745.1708 300.1389795 +22.7949319      399.247      69.4665      1.106     1.99    -11.62162     19.59861     87.07792         8     0.775     0.594  39.26   0
        82    464.6966    745.1829 300.0881757 +22.7459842     156.8705     69.37797      0.971     2.03    -11.75212     19.59861      48.3497         5     0.783     0.641 -33.88   0
        83    475.0062    740.0462 300.0930543 +22.7476028     426.8643     69.48419      1.031     1.64    -11.70831     19.59861     98.14935         5     0.570     0.545  -0.61   0
        84    876.1776    736.6620 300.2190882 +22.8669164     431.7098      69.4488      1.285     2.18    -11.78495     19.59861     61.84185         6     0.705     0.558  46.14   0
        85    420.6121    734.8173 300.0778325 +22.7297859     331.3953      69.4311      1.086     1.92    -11.67675     19.59861     55.62923         5     0.700     0.423  64.37   0
        86    854.1663    731.4214 300.2139324 +22.8588142     256.7606     69.48419      1.189     2.87    -11.70933     19.59861     30.86802         5     0.729     0.447  21.38   0
        87    227.1335    729.4680 300.0194120 +22.6701996     241.1836     69.51956      1.059     3.11    -11.71524     19.59861     47.43827         6     0.967     0.451  60.76   0
        88    520.0083    718.0196 300.1142221 +22.7547799      238.199      69.4311      0.968     1.52    -11.56184     19.59861      74.1367         5     0.560     0.530 -89.71   0
        89    936.3652    714.3668 300.2451029 +22.8785501     2264.929     69.53724      1.056     1.73    -11.82615     19.59861     412.1609        18     0.912     0.790  83.02   0
        90    541.8310    715.3826 300.1218715 +22.7605679     762.7238      69.4488      1.205     1.90    -11.51917     19.59861     114.0435         9     0.784     0.618  71.55   0
        91    924.8464    705.7194 300.2443242 +22.8726145     899.6093      69.4488      1.084     1.72    -11.73236     19.59861     180.6553         9     0.763     0.620 -64.91   0
        92    287.7861    699.7867 300.0479187 +22.6798865     433.2256     69.39568      1.195     1.95    -11.40838     19.59861     93.63314         9     0.819     0.616 -20.62   0
        93    751.2913    697.1062 300.1930380 +22.8181243     1255.396     69.62556      1.233     1.92     -11.4761     19.59861     259.7704        15     1.091     0.855   2.75   0
        94    955.9681    695.8201 300.2572471 +22.8790964     765.7137      69.4665      1.155     1.98    -11.69134     19.59861     153.4656        11     0.855     0.695 -84.61   0
        95    833.4186    682.7441 300.2232982 +22.8386162     213.5981      69.4488      1.083     3.06    -11.47502     19.59861     33.05541         5     0.726     0.450 -69.25   0
        96    136.6562    683.5197 300.0062387 +22.6298695     395.2619     69.50188      1.163     3.02    -11.68219     19.59861     51.21883         5     0.717     0.447  23.42   0
        97    869.6007    673.9969 300.2374195 +22.8469473     71946.55     69.25385      1.101     1.80    -11.43498     19.59861     13418.68        97     1.147     1.082  79.94   0
        98   1016.6630    675.7556 300.2827001 +22.8915168     635.4735     69.48419      1.082     2.18      -11.501     19.59861     103.3665         8     0.771     0.617 -55.00   0
        99    722.1006    674.5870 300.1912683 +22.8029079     488.6677     69.37797      1.043     2.62    -11.41241     19.59861     71.06594         7     0.819     0.559  33.15   0
       100    902.6575    666.6131 300.2501249 +22.8547322     225.8145      69.4311      1.017     2.99    -11.40172     19.59861     46.51218         5     0.713     0.469  14.20   0
       101    555.8547    662.8895 300.1433072 +22.7497069     884.0123     69.50188      1.160     1.96    -11.32823     19.59861     162.7849        13     0.897     0.774  47.51   0
       102    737.0579    660.1724 300.2006148 +22.8032523     4552.044      69.4665      1.127     1.83    -11.20707     19.59861     962.0983        25     0.984     0.818  69.77   0
       103    238.6479    655.5079 300.0470415 +22.6524417     2298.171     69.48419      1.114     2.03    -11.13259     19.59861     350.8637        17     0.874     0.859 -30.10   0
       104    320.9734    653.4841 300.0732933 +22.6765604     632.0857      69.4488      1.213     2.41    -11.16362     19.59861     86.33089         9     0.787     0.722  16.08   0
       105    529.0210    648.7949 300.1395383 +22.7376148     352.1805      69.4488      1.116     1.72     -11.1689     19.59861     92.19524         7     0.644     0.628 -78.98   0
       106    520.5895    641.1643 300.1393952 +22.7328962      1580.25      69.4488      1.138     1.98    -11.07144     19.59861     273.7126        19     1.044     0.781  77.37   0
       107    510.8640    634.6151 300.1384979 +22.7281000     746.7826      69.4488      1.129     2.22    -10.99859     19.59861     140.5446        10     0.932     0.662 -60.63   0
       108    904.6541    632.3640 300.2618840 +22.8454919     346.1016     69.48419      0.951     2.40    -11.15124     19.59861     46.42052         5     0.693     0.462 -15.25   0
       109    173.9792    630.9149 300.0349390 +22.6259833     376.7797      69.4134      1.118     2.21    -11.17683     19.59861      66.4558         7     0.694     0.657  33.73   0
       110    957.5038    625.9971 300.2804314 +22.8594969     298.5552     69.37798      1.129     3.69    -11.30279     19.59861      51.0494         6     0.948     0.492 -83.79   0
       111    213.9587    626.0657 300.0489399 +22.6365884     303.1254      69.4488      1.093     3.35    -10.86947     19.59861     43.70821         6     0.743     0.577 -38.04   0
       112    435.5795    624.5948 300.1183308 +22.7026471     774.0759      69.4488      1.034     2.08    -11.01203     19.59861     124.0602        13     0.839     0.772  37.61   0
       113   1011.4702    621.9468 300.2985775 +22.8745000     267.6389      69.4665      0.865     2.25    -11.28935     19.59861     77.12767         6     0.732     0.553  40.39   0
       114     89.5817    619.6719 300.0123729 +22.5974321     9853.031      69.4665      1.193     2.09    -11.51952     19.59861     1408.206        40     1.125     1.034  53.66   0
       115     10.2520    621.4484 299.9871577 +22.5741320     362.4329     69.50188      1.192     3.27    -11.55142     19.59861     52.13635         8     0.869     0.656  51.31   0
       116    520.4328    619.9503 300.1462435 +22.7267600     573.3224     69.50188      1.196     2.18    -10.80571     19.59861     85.08266         8     0.775     0.625  40.37   0
       117    555.4477    618.7847 300.1575205 +22.7369244     254.4672     69.50188      1.731     3.43    -10.76702     19.59861     26.33018         5     0.753     0.450 -69.58   0
       118    938.5297    605.8000 300.2810818 +22.8480095      604.972     69.37797      1.279     2.61    -11.21772     19.59861      99.3688         8     0.867     0.636 -52.03   0
       119     35.6928    603.7435 300.0008132 +22.5766912     826.4677     69.51956      1.804     5.52    -11.41207     19.59861     80.00193        11     1.330     0.646 -83.46   0
       120    878.9130    598.6702 300.2648144 +22.8280995     413.5341     69.57258      1.372     2.50    -10.67667     19.59861     62.88713         7     0.718     0.653   7.65   0
       121    633.4105    597.6321 300.1886683 +22.7542249     126.0864      69.4665      1.375     3.47    -10.55469     19.59861     21.79444         5     1.074     0.323  68.78   0
       122    440.6330    593.0114 300.1301702 +22.6950981     428.4021      69.4488      1.312     3.03    -10.60869     19.59861     65.33162         6     0.932     0.435  75.47   0
       123    605.9348    589.3368 300.1828103 +22.7436065     446.9567     69.50188      1.343     2.90    -10.26732     19.59861     59.46392         7     0.834     0.584  34.12   0
       124    484.7008    588.8330 300.1452397 +22.7071135     394.2126      69.4488      1.073     2.08    -10.37372     19.59861     78.29762         7     0.701     0.620  89.81   0
       125    918.5375    584.0143 300.2819311 +22.8357606     1568.812      69.4311      1.086     1.79    -10.93804     19.59861     293.0685        16     0.950     0.749  27.79   0
       126    450.3691    584.1378 300.1360837 +22.6954709     917.5819     69.48419      1.212     2.08    -10.44513     19.59861     142.1604        13     0.863     0.801  89.47   0
       127   1016.4996    581.9854 300.3131379 +22.8645229     334.1773     69.37798      1.091     2.42    -10.99424     19.59861     69.19862         8     0.900     0.548  44.77   0
       128     12.3799    577.8671 300.0019842 +22.5622742     2580.444      69.4488      1.338     2.36    -11.07667     19.59861     319.2663        25     1.124     1.032  75.97   0
       129    313.7734    570.9088 300.0978983 +22.6507078     4451.484      69.4134      1.176     1.98    -10.53103     19.59861     790.6342        24     0.988     0.889  80.03   0
       130    436.2323    567.9435 300.1369493 +22.6865834     4450.233     69.48419      1.162     1.91    -10.29651     19.59861     830.4449        24     0.985     0.856  83.46   0
       131    932.4401    559.1230 300.2943567 +22.8327734     5914.525      69.4488      1.052     1.80    -10.78006     19.59861     1120.769        30     0.990     0.879 -74.08   0
       132    847.8545    561.6414 300.2671709 +22.8081559     958.0225      69.4311      1.156     1.93    -10.51202     19.59861     183.4656        11     0.848     0.666 -69.37   0
       133    496.7629    557.4925 300.1591800 +22.7017336      5454.38      69.4665      1.081     1.82     -9.90554     19.59861      951.141        27     0.987     0.899  71.79   0
       134    666.4349    553.4128 300.2133255 +22.7514260     314.9991      69.4488      1.319     3.30     -10.5031     19.59861     53.14979         6     0.906     0.701  71.35   0
       135    224.1582    553.1320 300.0758166 +22.6187254      685.598      69.4488      1.123     1.91    -10.45159     19.59861     128.0735         8     0.699     0.644 -75.73   0
       136    470.6696    550.5308 300.1533232 +22.6919115     34.41391     69.51956      1.051     3.39     -9.87364     19.59861     35.05452         5     1.045     0.318 -69.61   0
       137    428.5068    545.7161 300.1417701 +22.6778868     1999.418     69.64321      1.047     1.92    -10.04248     19.59861     340.5482        15     0.872     0.766  67.37   0
       138    771.4111    545.8119 300.2484951 +22.7807032     369.7057     69.36025      1.091     2.69    -10.46836     19.59861     71.98826         6     0.755     0.489  84.72   0
       139    406.8362    544.1358 300.1355424 +22.6709349     591.7043      69.4665      1.102     1.95    -10.14076     19.59861     124.7788         9     0.739     0.685  14.18   0
       140    161.0373    543.6652 300.0592769 +22.5970730     256.9706      69.4488      1.098     2.19    -10.58638     19.59861     54.85729         7     0.700     0.631 -10.34   0
       141    848.4717    541.1515 300.2740230 +22.8024541      774.502      69.4488      1.320     2.55    -10.46219     19.59861     122.8781        14     1.031     0.883 -41.26   0
       142    545.0886    533.2100 300.1821119 +22.7092506     100250.6      69.4134      1.196     1.88    -9.724905     19.59861     18548.62       132     1.243     1.222 -84.39   0
       143    728.8490    538.1221 300.2377349 +22.7657400     281.6157      69.4665      1.114     2.09    -10.40413     19.59861     68.72069         8     0.765     0.612  56.71   0
       144    231.0361    533.2336 300.0844210 +22.6150796     1646.649     69.51956      1.205     2.09    -10.42085     19.59861     289.7429        18     0.945     0.880  39.04   0
       145    435.6904    513.4543 300.1544893 +22.6707801     1251.202     69.51956      1.180     2.13    -9.855735     19.59861     187.4939        16     0.953     0.845 -72.26   0
       146    832.6359    499.5700 300.2826011 +22.7857629     859.2487     69.48419      1.064     2.15    -10.08828     19.59861     140.7385        13     0.944     0.714  73.60   0
       147    719.9922    499.7855 300.2474345 +22.7520741     175.1735     69.37797      1.467     4.99    -10.00195     19.59861     24.66542         5     1.143     0.616 -89.41   0
       148    703.8303    497.2455 300.2432257 +22.7465014     1148.804     69.50188      1.065     1.74    -9.944582     19.59861     239.7239        14     0.876     0.750  88.22   0
       149    946.6826    490.1330 300.3212190 +22.8172139     402.3909     69.57258      1.459     2.44    -10.39871     19.59861     66.62646         8     0.787     0.761 -45.37   2
       150    491.0739    493.0327 300.1783574 +22.6815221      430.268      69.4488      1.252     2.88    -9.709184     19.59861     71.84007         8     0.900     0.643  27.35   0
       151    961.1171    491.0006 300.3254380 +22.8217864      619.744     69.34253      1.099     1.56    -10.40327     19.59861     146.9007         8     0.711     0.575  62.51   0
       152    832.9086    490.0684 300.2857737 +22.7831145     946.8411     69.59025      1.129     1.80    -9.999324     19.59861     198.0226        11     0.779     0.728  51.00   0
       153    586.2137    488.1025 300.2095716 +22.7086258     359.2416     69.36025      1.242     3.94    -9.696316     19.59861     48.58597         6     0.785     0.567  32.56   0
       154    372.1945    487.6376 300.1431267 +22.6443301     155.6501     69.48419      1.033     3.47    -9.883501     19.59861     29.31231         5     0.791     0.441 -16.96   0
       155    871.0204    484.6189 300.2994229 +22.7929658     2098.797      69.4665      1.100     1.73    -9.995502     19.59861     441.0787        17     0.979     0.749  74.76   0
       156    962.8513    475.0881 300.3311494 +22.8177324     404.5502     69.50188      1.082     1.68    -10.31192     19.59861     80.92216         5     0.569     0.531  19.27   0
       157    103.2468    475.3968 300.0635042 +22.5601504     452.1294      69.4488      1.016     2.03      -10.643     19.59861     77.17538         6     0.651     0.601 -47.06   0
       158    644.6804    455.3983 300.2384013 +22.7167557     292.6404     69.37798      1.061     2.77    -9.702674     19.59861     68.64323         5     0.697     0.487  -5.76   0
       159    705.3350    447.5604 300.2598378 +22.7326798     435.4229      69.4311      1.019     2.80    -9.779241     19.59861     81.55098         7     0.836     0.642  41.74   0
       160    959.1541    447.4289 300.3389833 +22.8086751     264.4232     69.50188      1.139     2.80    -10.09858     19.59861     56.03992         8     0.864     0.650  14.06   0
       161    862.5964    443.6341 300.3101136 +22.7786648      430.442      69.4665      0.989     2.14    -9.873091     19.59861     73.89701         8     0.807     0.588  21.54   0
       162    846.8777    439.5815 300.3065310 +22.7727918     360.5739      69.4665      1.067     2.32    -9.868099     19.59861     83.33645         6     0.754     0.591 -29.45   0
       163    591.0954    438.1574 300.2273183 +22.6957451     1550.157     69.48419      1.171     1.87    -9.698645     19.59861     295.1129        14     0.906     0.749  84.39   0
       164     67.1971    429.5580 300.0671966 +22.5361849     220.8585     69.48419      0.999     2.80    -10.53482     19.59861     38.51068         5     0.727     0.441 -23.25   0
       165    874.3251    417.1403 300.3223764 +22.7745638     283.7517     69.51956      1.123     3.51    -9.843702     19.59861     55.85405         5     0.936     0.408  74.14   0
       166   1002.2650    417.0192 300.3623068 +22.8128434     587.5245      69.4311      1.048     1.95    -9.870007     19.59861     128.8479         9     0.808     0.624  85.93   0
       167    960.6987    415.9021 300.3497071 +22.8000754     461.9741      69.6785      1.196     1.96    -9.869808     19.59861     87.51335         7     0.669     0.631 -53.85   0
       168    701.6198    411.9081 300.2702624 +22.7213242     577.0471     69.39568      1.099     2.14    -9.785345     19.59861     106.4491         9     0.770     0.686 -12.44   0
       169    205.6161    410.4135 300.1164224 +22.5722114     388.0799      69.4134      1.404     3.25     -10.2387     19.59861     62.42781         8     1.031     0.485  88.19   0
       170    268.0484    406.1311 300.1372200 +22.5897052     1729.661      69.4665      1.173     2.07    -10.03635     19.59861     309.3583        16     0.913     0.829  80.01   0
       171   1001.0481    404.3419 300.3660454 +22.8088345     2095.712     69.51956      1.090     1.71    -9.867426     19.59861     417.3705        16     0.859     0.795  76.49   0
       172    215.2924    400.8587 300.1225333 +22.5723712     3707.406     69.51956      1.201     2.05      -10.186     19.59861     624.7397        24     1.016     0.916  68.93   0
       173    981.0576    395.3139 300.3627436 +22.8002533     870.6674     69.57258      1.109     2.10     -9.86564     19.59861     168.4149        11     0.825     0.735 -61.89   0
       174    356.0245    395.0875 300.1681627 +22.6129139     2292.931      69.4311      1.224     1.97    -9.750055     19.59861     430.9409        20     0.987     0.848  59.59   0
       175    617.2608    392.2941 300.2503624 +22.6904127     496.7806     69.55491      2.185     6.98    -9.643354     19.59861     40.15747        12     1.907     0.715 -33.95   0
       176    600.1975    391.6876 300.2452468 +22.6851254     9113.385     69.39568      1.171     1.91    -9.618413     19.59861     1622.341        38     1.072     0.989  89.15   0
       177    933.4694    374.1631 300.3547744 +22.7799232     332.9311      69.4488      0.977     1.73    -9.861472     19.59861     74.79745         5     0.641     0.478  70.50   0
       178    154.9616    371.8738 300.1131973 +22.5459593     927.1761      69.4134      1.271     2.40    -10.17395     19.59861     150.1438        14     1.009     0.765  71.90   0
       179    540.8356    361.1840 300.2366743 +22.6585745     3192.227      69.4665      1.196     1.93    -9.316862     19.59861     558.7608        21     0.943     0.878  88.48   0
       180    954.5569    361.2389 300.3655472 +22.7825222     672.4454     69.55491      1.030     2.06    -9.858891     19.59861     105.9819         6     0.674     0.563  51.91   0
       181    255.8900    360.6749 300.1482029 +22.5730117     336.0844     69.62556      1.463     3.59    -9.900584     19.59861     40.66988         7     0.821     0.634 -14.97   0
       182    112.7889    353.4915 300.1060633 +22.5280356     277.5793      69.4134      1.186     3.94    -10.15094     19.59861     45.02989         6     0.883     0.503  39.31   0
       183    654.6589    351.3878 300.2752930 +22.6898667     236.0047      69.4488      1.072     2.29    -9.592752     19.59861     51.12212         5     0.669     0.477 -12.36   0
       184    745.0396    349.9864 300.3038995 +22.7165400     694.5636     69.48419      1.366     2.29    -9.796765     19.59861     103.8752        10     0.843     0.722 -89.25   0
       185    447.4168    347.4031 300.2120780 +22.6266187     3170.154     69.37798      1.138     2.07    -9.710202     19.59861     427.9281        26     1.038     0.921  82.08   0
       186    936.8573    341.8916 300.3663115 +22.7716603     361.7578     69.51956      1.183     1.82    -9.855449     19.59861     69.83491         5     0.577     0.544 -27.77   0
       187    839.2842    341.6274 300.3359807 +22.7423655     751.9438      69.4665      1.179     2.14    -9.879089     19.59861     119.1329        11     0.861     0.745 -69.61   0
       188    431.9102    335.9384 300.2109764 +22.6186785     266.0338     69.55491      1.365     2.65    -9.673375     19.59861     47.52637         5     0.767     0.502 -35.46   0
       189    812.2079    329.0847 300.3316155 +22.7306513     337.6864     69.39568      1.163     2.71    -9.830852     19.59861     62.41262         8     0.887     0.622  24.56   0
       190    335.0205    326.6106 300.1838679 +22.5869568     1261.236      69.4488      1.190     2.01    -9.596901     19.59861     209.5808        14     0.857     0.811 -64.75   0
       191     53.5564    324.1535 300.0971894 +22.5018509     510.5596     69.50188      1.162     2.50     -10.1546     19.59861     74.41202         7     0.788     0.572  60.88   0
       192    304.4075    316.1604 300.1777415 +22.5747791     14658.71     69.50188      1.217     2.13    -9.563884     19.59861     2170.427        46     1.124     1.043  71.15   0
       193    838.9182    313.4130 300.3450285 +22.7341460     689.6479      69.4488      1.185     1.94    -9.879089     19.59861     116.5197         9     0.790     0.624  58.40   0
       194    793.6572    310.4403 300.3318888 +22.7197368      255.707      69.4488      1.316     4.22    -9.802578     19.59861     31.03408         5     0.998     0.510  45.19   0
       195      1.4221    304.1008 300.0875087 +22.4804592     1493.992      54.5391      1.050     2.15    -10.24309     19.59861     342.1837        13     1.006     0.610  89.30  24
       196    178.3722    302.1009 300.1431273 +22.5329544     224.8532      69.4134      1.189     4.41    -9.745775     19.59861     39.82658         7     1.175     0.471  84.26   0
       197    714.8065    295.7462 300.3120937 +22.6918968     945.8304      69.4665      1.181     2.16    -9.589034     19.59861     134.0498        13     0.960     0.752  70.26   0
       198    930.1136    288.4193 300.3815718 +22.7542676     283.8208      69.4134      1.049     1.88    -9.844428     19.59861     51.18915         5     0.673     0.448  24.42   0
       199    376.5519    280.4268 300.2117788 +22.5861444     1149.616     69.48419      1.416     2.57    -9.375052     19.59861     149.6889        17     1.154     0.798  59.05   0
       200    815.4487    273.1805 300.3507767 +22.7155529     306.4996     69.48419      1.159     2.78    -9.729464     19.59861     49.25526         7     0.902     0.485 -81.60   0
       201    698.1033    270.9344 300.3149461 +22.6797632     196.9526     69.57258      0.881     2.57    -9.386228     19.59861     53.96079         5     0.921     0.361 -30.76   0
       202    452.4113    259.8615 300.2420541 +22.6029728     617.7441      69.4134      1.209     2.50    -9.361725     19.59861      87.5835        11     0.912     0.735  42.19   0
       203    697.2389    251.5643 300.3209649 +22.6739375     1018.097     69.53724      1.117     2.08    -9.294951     19.59861     157.1973        12     0.865     0.705  52.17   0
       204    958.4787    245.7242 300.4042771 +22.7504827     1513.018     69.57258      1.121     1.92    -9.706742     19.59861     287.0036        14     0.843     0.805  79.70   0
       205   1019.7087    240.2763 300.4251415 +22.7672440     183.3936      69.4311      1.096     2.49     -9.56061     19.59861      41.1684         5     0.723     0.438 -78.00  16
       206    405.4323    235.6571 300.2352948 +22.5819421     357.6969     69.48419      1.170     2.78    -9.161084     19.59861     50.09476         5     0.691     0.480 -75.68   0
       207     80.5136    229.6230 300.1362484 +22.4828068     804.1288      69.4134      1.548     3.23    -9.440951     19.59861     92.85364        15     1.099     0.926 -24.34   0
       208    164.3448    221.4235 300.1649558 +22.5055893     269.2577     69.50188      1.194     4.38     -9.04275     19.59861     43.98485         7     0.921     0.594 -70.34   0
       209    840.4484    215.2583 300.3773699 +22.7063868     270.6637     69.51956      1.148     2.81    -9.494809     19.59861     37.73198         5     0.707     0.487  78.50   0
       210    768.7758    212.8314 300.3558227 +22.6842283     356.6423      69.4665      1.223     2.33    -9.181004     19.59861     50.62761         6     0.704     0.561  52.07   0
       211    866.9631    202.0845 300.3899100 +22.7105373     1002.626      69.4488      1.153     2.02     -9.54447     19.59861     219.1025        10     0.831     0.663  85.32   0
       212    285.5815    199.5385 300.2097432 +22.5356489     1012.041      69.4488      1.201     2.10    -8.988282     19.59861     158.4466        15     1.132     0.720  82.23   0
       213    363.2123    194.5778 300.2354942 +22.5574906     571.9865      69.4488      1.295     2.71     -9.02291     19.59861     65.05002         8     0.803     0.676  45.36   0
       214    765.4008    193.7812 300.3609539 +22.6777413     169.7582     69.39568      1.035     2.95    -9.066655     19.59861     40.33916         6     0.702     0.637  33.30   0
       215    180.2105    186.9202 300.1810833 +22.5004400      339.335      69.4488      1.243     2.54    -9.013907     19.59861     59.46546         6     0.727     0.548 -22.19   0
       216    718.0582    183.4878 300.3495452 +22.6606056     770.8032     69.53724      1.130     2.09    -8.969427     19.59861     132.6827        12     0.878     0.721 -84.84   0
       217    201.8318    179.4619 300.1902232 +22.5047801     282.4634     69.48419      1.304     2.71     -8.99389     19.59861     41.09872         5     0.724     0.449 -22.50   0
       218    783.2362    182.6242 300.3701318 +22.6798743     353.9829     69.48419      1.265     3.17    -9.047877     19.59861     57.51559         5     0.912     0.410  82.23   0
       219    642.6389    174.4098 300.3290012 +22.6354096     652.8596      69.4665      1.223     2.43     -9.09365     19.59861     92.86772        11     0.888     0.751 -83.32   0
       220    838.0577    165.5236 300.3927654 +22.6913710      621.796     69.50188      1.058     2.18    -9.154369     19.59861     121.5827        11     0.992     0.614  69.05   0
       221    568.8398    165.9637 300.3087641 +22.6108780     558.5003     69.53724      1.207     2.56    -9.193014     19.59861     76.43654         8     0.871     0.602  37.10   0
       222    850.0236    164.6803 300.3967686 +22.6947107     300.7505      69.4311      1.052     2.04    -9.198875     19.59861     66.52296         7     0.710     0.604  14.89   0
       223   1010.8500    155.5797 300.4498668 +22.7402313     777.5347      69.4665      1.139     2.06    -8.600281     19.59861     145.3649        12     0.870     0.730  75.98   0
       224    966.8041    154.8283 300.4363738 +22.7268332     554.0562      69.4311      1.178     2.28    -9.023767     19.59861     97.38831         9     0.881     0.635  88.98   0
       225    201.0763    148.0764 300.2001719 +22.4955415     423.4638     69.55491      1.490     2.58    -8.936864     19.59861     56.56839         7     0.833     0.622  31.27   0
       226     62.7733    143.0886 300.1588171 +22.4526482     990.9972      69.4311      1.282     2.55    -9.247045     19.59861     142.1947        15     0.971     0.859  10.92   0
       227    885.8552    139.7781 300.4160181 +22.6982758     368.1442     69.48419      1.088     2.88    -9.208767     19.59861     63.36649         8     0.899     0.601 -32.50   0
       228     12.3596    139.5632 300.1443029 +22.4365203     239.7791     69.53724      1.299     5.00    -9.270689     19.59861      34.5325         7     0.993     0.713  -5.66   0
       229    220.1664    136.3879 300.2098977 +22.4979070     2690.585      69.4488      1.246     2.31    -8.860804     19.59861     366.8636        21     1.013     0.887  52.58   0
       230      4.2624    130.7049 300.1446622 +22.4315496      710.142     67.03527      1.363     2.71    -9.272035     19.59861     83.47076        12     0.934     0.785 -80.33  16
       231   1019.0251    123.6063 300.4627912 +22.7334799     8808.972      69.4488      1.188     1.89    -8.309793     19.59861     1618.691        33     1.050     0.946  84.63  16
       232    864.2612    117.7857 300.4164222 +22.6854873     1777.511      69.4311      1.177     2.09    -9.089706     19.59861     317.5938        17     0.941     0.833  69.82   0
       233    967.9016    116.4723 300.4491612 +22.7161288       1387.8     69.59025      1.180     2.02    -8.760735     19.59861     228.4164        13     0.921     0.739  71.77   0
       234    413.7184    113.0452 300.2776590 +22.5492027     433.6927      69.4488      1.519     3.03    -8.902248     19.59861     50.92351         6     0.805     0.611   2.66   0
       235    341.6079    103.8296 300.2582185 +22.5249496     310.2457      69.4665      1.645     3.59    -8.828181     19.59861     27.85376         5     1.006     0.369  -4.38   0
       236    103.8007    101.8740 300.1849325 +22.4531157     268.6916     69.36025      1.266     2.15    -9.201333     19.59861      48.8115         6     0.700     0.557  38.86   0
       237    465.0638    100.2528 300.2977842 +22.5609091     813.1421     69.50188      1.229     2.62    -8.862247     19.59861      109.626        13     1.110     0.745  74.01   0
       238    393.2553    101.3137 300.2750989 +22.5397014     222.1494     69.51956      1.302     4.42    -8.857162     19.59861     28.81164         6     1.039     0.536  32.50   0
       239    753.7969     89.1836 300.3912766 +22.6441944     286.1773     69.37797      1.371     3.94    -8.748976     19.59861     30.94253         6     0.801     0.556 -51.23   0
       240    239.1423     80.2818 300.2339967 +22.4874808     3025.394     69.51956      1.277     2.29    -8.676658     19.59861     429.9615        26     1.096     0.952  75.75   0
       241     90.4710     79.7419 300.1879701 +22.4427652     423.1449     69.50188      1.675     3.22    -9.107585     19.59861     46.42717         7     1.068     0.596  34.01   0
       242    254.5122     71.5126 300.2416191 +22.4895681     171.1255     69.62556      1.139     3.73    -8.657872     19.59861     28.25287         6     1.000     0.399  70.84   0
       243    485.1559     65.4924 300.3153118 +22.5569386     3116.981      69.4665      1.245     2.15    -8.622529     19.59861     434.3176        24     1.041     0.917  76.32   0
       244    370.4461     65.2548 300.2797002 +22.5225078      167.548     69.50188      1.184     2.69     -8.60626     19.59861     44.46191         5     0.698     0.482  76.23   0
       245    737.7870     54.9480 300.3973936 +22.6295572     380.3606     69.50188      1.076     2.64    -8.712473     19.59861      58.3443         6     0.840     0.481  53.18   0
       246    830.2063     53.6033 300.4266279 +22.6568352     221.4306     69.28933      0.994     2.08    -8.776081     19.59861     48.17706         5     0.699     0.439 -23.41   0
       247    613.5000     45.5352 300.3617364 +22.5896390     3251.679     69.55491      1.205     2.19    -8.470539     19.59861     425.6363        25     1.112     0.963 -80.19   0
       248    536.6917     47.5995 300.3371548 +22.5672313      234.748     69.34253      1.068     3.43    -8.564209     19.59861      32.7977         5     0.744     0.458  17.23   0
       249    388.4533     44.6301 300.2919906 +22.5219765     642.7893     69.48419      1.178     2.30    -8.462298     19.59861     100.2883        11     0.862     0.736 -53.74   0
       250    654.6451     43.0377 300.3753590 +22.6012409     470.5286     69.51956      1.399     2.45    -8.480844     19.59861       64.076         7     0.800     0.577  60.95   0
       251    670.6561     38.9057 300.3816856 +22.6048466     222.8257     69.51956      1.050     2.80    -8.468353     19.59861      52.8996         5     0.725     0.447  73.72   0
       252    137.3377     37.1651 300.2163398 +22.4445871     292.8855     69.48419      1.335     3.43    -8.736213     19.59861     35.95735         5     0.756     0.450  76.21   0
       253    940.3160     36.3917 300.4665359 +22.6848370     258.2829      69.4134      1.178     2.58    -8.430154     19.59861     44.58366         5     0.684     0.480  10.22   0
       254    657.7599     30.3940 300.3804296 +22.5985383     1397.405     69.50188      1.196     2.06    -8.401956     19.59861     200.9512        15     0.950     0.786  89.23   0
       255    672.6757     28.9394 300.3855468 +22.6025858     420.7536     69.51956      1.498     5.35    -8.409595     19.59861     47.15588        10     1.176     0.731  41.95   0
       256    744.1561     21.8695 300.4101059 +22.6219517      849.327      69.4311      1.289     2.28    -8.698967     19.59861     130.6411        12     0.875     0.789 -67.68   0
       257    682.2347     15.0235 300.3930369 +22.6014463     439.9915     69.48419      1.426     2.44    -8.377666     19.59861     54.45713         7     0.738     0.595  89.15   0
       258      3.9611   1015.5427 299.8569906 +22.6851871     982.7089     66.00048      0.844     3.23    -17.39786     19.59861     230.4661         7     0.662     0.457  78.14  16
       259    287.5245   1011.1436 299.9465192 +22.7690876     481.4256     69.50188      1.228     2.42    -11.73974     19.59861      84.9389         8     0.814     0.648 -39.57   0
       260    190.7466   1005.9799 299.9181216 +22.7385485      780.983      69.4488      3.194     6.03     26.44473     19.59861      43.7043         9     1.372     0.839 -87.26   2
