#   1 NUMBER                 Running object number                                     
#   2 X_IMAGE                Object position along x                                    [pixel]
#   3 Y_IMAGE                Object position along y                                    [pixel]
#   4 ALPHA_J2000            Right ascension of barycenter (J2000)                      [deg]
#   5 DELTA_J2000            Declination of barycenter (J2000)                          [deg]
#   6 FLUX_APER              Flux vector within fixed circular aperture(s)              [count]
#   7 FLUXERR_APER           RMS error vector for aperture flux(es)                     [count]
#   8 FLUX_RADIUS            Fraction-of-light radii                                    [pixel]
#   9 FWHM_IMAGE             FWHM assuming a gaussian core                              [pixel]
#  10 BACKGROUND             Background at centroid position                            [count]
#  11 THRESHOLD              Detection threshold above background                       [count]
#  12 FLUX_MAX               Peak flux above background                                 [count]
#  13 ISOAREA_IMAGE          Isophotal area above Analysis threshold                    [pixel**2]
#  14 A_IMAGE                Profile RMS along major axis                               [pixel]
#  15 B_IMAGE                Profile RMS along minor axis                               [pixel]
#  16 THETA_IMAGE            Position angle (CCW/x)                                     [deg]
#  17 FLAGS                  Extraction flags                                          
         1    166.6894     16.5674 300.2353581 +22.4424613     1940.313     69.52959      1.310     2.42    -9.352921     19.62641      240.455        21     1.060     0.959  73.12   0
         2    728.2437      8.7480 300.4126322 +22.6084488     290.5278     69.60046      1.195     2.97    -8.319043     19.62641     54.39387         8     0.859     0.650  81.80   0
         3    282.7424      8.8642 300.2739329 +22.4750326     627.2186     69.61817      1.297     2.44    -9.176336     19.62641     79.32743         7     0.722     0.624  81.08   0
         4    765.8792      3.8641 300.4259421 +22.6183129     431.7516     65.85121      1.563     3.58    -8.694866     19.62641     38.80048         9     0.941     0.688  80.17  16
         5    786.0087      1.1907 300.4330816 +22.6235707     334.1605     53.17562      0.907     2.42    -8.926222     19.62641     97.82512         6     0.883     0.382  -6.60  24
         6    171.6217   1011.7189 299.9135643 +22.7293420     1138.548     69.52959      7.167    10.46     23.06273     19.62641     47.68528        21     1.850     1.649  87.34  19
         7    130.0508   1023.2627 299.8968897 +22.7201610     580.7593     56.39307      3.238     5.74     25.79112     19.62641     38.64587         7     1.965     0.472 -14.90  25
         8     78.3803   1013.5217 299.8840104 +22.7018481      2856.22     69.56503     18.524    56.20     13.33216     19.62641     68.56763       767    11.502     7.621  37.47  27
         9     76.0366    933.1342 299.9094498 +22.6781185     2027.404     69.56503     17.921    21.40     -7.56121     19.62641     49.72249        96     4.363     2.916  12.67   3
        10     60.9861    974.0333 299.8914631 +22.6853124     2258.093     69.56503     19.632    29.23    -1.237744     19.62641     56.13805       203     7.674     3.090  55.24   3
        11     77.6895    963.0991 299.9002102 +22.6871984     2587.888     69.72433     26.585    57.64    0.2959306     19.62641     69.02159       839    14.152     6.514  68.31  19
        12    729.9191    999.4537 300.0912521 +22.8934318     253.7921     69.60046      1.127     2.97    -13.61854     19.62641     52.30743         7     0.882     0.591 -51.68   0
        13    543.1190   1004.0763 300.0315831 +22.8386998     1054.964     69.67127      1.160     2.03     -12.7069     19.62641     207.6105        13     0.960     0.743  52.57   0
        14     70.7033    927.8063 299.9095273 +22.6749902     1741.793     69.45864     23.535    45.17    -8.994925     19.62641     47.43631       342    12.464     4.543 -51.06  19
        15    629.5426    999.1512 300.0600904 +22.8632255       4062.8     69.61817      1.148     1.84    -13.79232     19.62641     678.4736        25     1.008     0.896 -74.29   3
        16    165.8434   1009.9291 299.9123516 +22.7270936     1235.385     69.52959      8.512    12.70     22.47799     19.62641     44.84158        27     3.252     1.381  81.82  19
        17    169.6660   1004.0723 299.9154461 +22.7265641     1158.044     69.60046      6.276     9.40     20.16702     19.62641     38.21915        20     2.251     1.096 -79.08   3
        18    100.2574    980.4481 299.9015729 +22.6989473     1128.865     69.61817      3.113     3.89      10.0284     19.62641     31.81075         5     1.493     0.290 -78.45   2
        19    922.4101    982.5673 300.1567362 +22.9463290     408.8038     69.56503      0.994     2.49    -13.54748     19.62641     67.01514         6     0.819     0.455 -74.02   0
        20    161.9961    986.5822 299.9187568 +22.7192498     784.1148     69.49413      4.734     7.99     14.20639     19.62641     36.42233        12     1.555     1.148 -89.07   0
        21    351.3393   1010.7724 299.9697384 +22.7830446     195.8296     69.56503      1.083     3.38     -13.1067     19.62641     43.79063         5     0.760     0.437 -72.83   0
        22    216.0737    997.8387 299.9318972 +22.7387173     2214.084     69.54732     13.090    32.78     16.50397     19.62641     54.43359       176     8.197     3.639 -64.50  19
        23    190.3652   1002.7371 299.9223129 +22.7323990     964.7688     69.56503      5.840     8.20     19.21687     19.62641      43.4369        16     1.525     1.234 -34.73   3
        24    237.5010    988.6855 299.9415368 +22.7425301     4028.106     69.72433      6.634    24.43     7.501471     19.62641     113.0165       204     7.352     2.254  69.38  19
        25    194.8437    996.9526 299.9255879 +22.7320870     1596.238     69.60046      6.275     9.26     16.78725     19.62641     60.12764        20     1.948     1.227  32.35   3
        26    647.9611    966.2753 300.0765289 +22.8593245     3276.294     69.52959      1.214     2.01    -13.32022     19.62641     568.4813        26     1.027     0.976  48.49   0
        27    125.5610    965.2396 299.9143841 +22.7021917     783.2702     69.63588      5.925     6.95     5.559304     19.62641     30.26249         9     1.556     0.870  64.95   0
        28    229.5138    985.0813 299.9402276 +22.7390987     1983.797     69.70664      9.367    17.49      9.21494     19.62641     56.29539        81     5.273     1.612  88.00   3
        29    556.2584    957.0008 300.0509987 +22.8291458     690.0617     69.52959      1.161     2.64    -12.79946     19.62641     122.7076        10     0.943     0.631  73.74   0
        30    100.8611    956.1483 299.9096702 +22.6921680     1053.925     69.61817      9.885     9.40     2.078035     19.62641     35.93974        20     2.443     1.009 -15.50   3
        31    104.0493    950.4473 299.9125162 +22.6914926     1072.439     69.60046     10.337    10.58    0.1189714     19.62641     35.78746        16     2.207     1.412 -11.78   3
        32     93.1003    953.9111 299.9079877 +22.6891959       1402.7     69.72433     12.818    12.25    0.6498878     19.62641     49.04012        19     3.376     1.237 -88.45   3
        33     88.3565    939.4542 299.9112196 +22.6836296     1358.057     69.56503      8.449     9.34    -4.658979     19.62641     41.98468        19     1.714     1.420  -9.92   3
        34    926.9554    930.1005 300.1752339 +22.9326355     989.8697     69.58276      1.165     1.92    -12.97806     19.62641     206.9031        16     0.952     0.859 -25.05   0
        35    380.9015    951.6661 299.9981742 +22.7749803     3294.235     69.65357      1.150     1.92    -12.92604     19.62641      549.561        21     0.935     0.889 -33.99   0
        36    715.6530    918.4719 300.1131713 +22.8659226     354.8965     69.54732      0.996     2.19     -13.0295     19.62641     58.74863         5     0.669     0.484  15.33   0
        37    450.2405    953.3701 300.0191888 +22.7962840     429.9812     69.58276      1.164     3.11    -13.03458     19.62641     79.82957         8     0.907     0.688  33.94   0
        38    750.7205    913.4032 300.1257449 +22.8749881      583.296     69.47639      1.233     2.15    -13.03922     19.62641     96.42704         8     0.743     0.689  68.10   0
        39    772.9630    906.9722 300.1347676 +22.8798149     5609.665     69.56503      1.151     1.77    -12.88666     19.62641     1198.102        28     0.957     0.896  24.93   0
        40    963.8788    906.6015 300.1943955 +22.9369626     202.7551     69.47639      0.971     3.39    -13.20947     19.62641      42.6237         5     0.826     0.484  54.51   0
        41    818.4160    907.1359 300.1488772 +22.8934949     198.0083     69.54732      0.857     2.20    -12.76864     19.62641     69.21986         5     0.860     0.345 -40.02   0
        42     84.3195    898.6939 299.9232307 +22.6707403     326.5431     69.68896      1.092     2.26    -9.844544     19.62641     56.10544         5     0.678     0.464 -84.73   0
        43    781.3370    889.0155 300.1432210 +22.8771745     646.4537     69.52959      1.026     1.76    -12.77641     19.62641     139.2373        10     0.760     0.670   9.22   0
        44    470.6051    887.2197 300.0470550 +22.7834307     178.6128     69.54732      1.047     3.49    -12.51365     19.62641      29.0349         5     0.747     0.470 -76.50   0
        45    819.4555    882.3978 300.1572525 +22.8867081     412.1616     69.51186      0.953     2.31    -12.69256     19.62641     63.56942         5     0.656     0.477  71.62   0
        46    719.3754    872.7875 300.1291991 +22.8539331     321.7856     69.56503      1.067     2.15    -12.80731     19.62641      58.7999         5     0.675     0.469 -75.58   0
        47    432.0113    869.3476 300.0408634 +22.7667231     2052.753     69.56503      1.104     1.76      -12.663     19.62641     410.7104        18     0.923     0.829 -57.31   0
        48    730.7739    869.9760 300.1336646 +22.8565455     256.3222     69.52959      1.073     2.35    -12.81264     19.62641     57.63837         7     0.756     0.597  88.73   0
        49    157.3391    855.1274 299.9600918 +22.6801871     325.9965     69.60046      1.288     3.33    -11.36772     19.62641     54.48605         9     1.058     0.570  76.05   0
        50    134.2715    851.8027 299.9540063 +22.6723073     705.2304     69.51186      1.229     2.92    -11.64625     19.62641      117.316        12     0.982     0.771  84.11   0
        51   1006.0809    840.8492 300.2289550 +22.9307396     1119.058     69.60046      1.214     2.12    -13.08727     19.62641     189.3114        15     0.968     0.801  69.22   0
        52    960.2117    839.3041 300.2151533 +22.9165454     941.8696     69.47639      1.082     2.04    -12.89692     19.62641     174.0324        12     0.809     0.725  71.71   0
        53    166.3656    833.6574 299.9698819 +22.6767449     209.5812     69.58276      0.983     2.47    -11.71616     19.62641     43.22238         5     0.698     0.460 -74.15   0
        54    743.6794    833.1840 300.1496569 +22.8498598     308.0891     69.58276      0.977     2.11    -12.49365     19.62641     57.64862         5     0.682     0.455 -78.40   0
        55    611.9065    827.2656 300.1105435 +22.8086350     2275.699     69.68896      1.112     1.67    -12.35831     19.62641     496.1805        19     0.985     0.755  61.25   0
        56    414.2107    824.5745 300.0498937 +22.7485428     343.9713     69.56503      1.210     2.12    -12.38858     19.62641     54.96387         6     0.666     0.602  82.53   0
        57    161.9858    821.1756 299.9725816 +22.6718527     766.2164     69.58276      1.382     2.03    -11.92132     19.62641     127.0211        10     1.103     0.632  70.73   0
        58    632.3311    819.5663 300.1194079 +22.8125535     320.9285     69.56503      0.997     1.91    -12.32148     19.62641     67.91344         5     0.642     0.472 -20.30   0
        59   1004.9165    807.2075 300.2395380 +22.9207316     602.8845     69.49413      1.133     2.11    -13.06203     19.62641     103.7951         9     0.908     0.632  39.79   0
        60    787.9805    806.9938 300.1719804 +22.8556301     1986.456     69.52959      1.110     1.78     -12.2454     19.62641     439.9951        16     0.856     0.767  65.81   0
        61    505.0862    799.6288 300.0862842 +22.7686591     324.9191     69.56503      1.160     2.44    -12.16509     19.62641     60.02608         6     0.711     0.614  68.75   0
        62    151.4783    797.8336 299.9769098 +22.6620081     461.2118     69.54732      1.082     2.08    -12.27866     19.62641     92.10471         9     0.788     0.667  -6.08   0
        63    301.0201    789.7374 300.0260242 +22.7045814     25883.09     69.52959      1.166     1.88    -12.03352     19.62641      4821.79        57     1.092     1.038  89.54   0
        64    558.8243    788.6725 300.1065738 +22.7816394     753.4878     69.60046      1.032     1.71    -12.13594     19.62641     158.4178         9     0.774     0.650 -50.95   0
        65    971.3755    787.6293 300.2354473 +22.9050565     376.5705     69.56503      1.121     3.40    -12.69341     19.62641     92.52105         9     1.066     0.647  68.34   0
        66    587.6912    784.5010 300.1169170 +22.7891027     440.7473     69.72433      1.146     2.19    -12.12498     19.62641      73.7692         8     0.789     0.649 -46.76   0
        67    598.6115    783.0706 300.1207820 +22.7919682      270.031     69.58276      1.109     3.31     -12.1195     19.62641     57.60424         7     1.047     0.484  86.30   0
        68    741.5121    769.6229 300.1696600 +22.8309702     363.9844     69.49413      0.986     2.18    -12.17547     19.62641     71.53619         5     0.659     0.462 -66.07   0
        69    365.0959    767.5828 300.0531561 +22.7174607     1038.247     69.47639      1.123     1.90     -11.9243     19.62641     167.2324        11     0.875     0.660  85.52   0
        70    350.7478    766.9927 300.0488857 +22.7129854     15412.68     69.54732      1.171     1.88    -11.86818     19.62641      2906.92        48     1.049     1.019 -76.74   0
        71    873.7147    762.7216 300.2131017 +22.8686292     1265.546     69.68896      1.081     1.79    -12.07333     19.62641     281.8003        14     0.814     0.797  32.61   0
        72    631.5885    758.9326 300.1389012 +22.7949348     532.9316     69.56503      1.295     2.33    -12.09904     19.62641     76.42899         9     0.817     0.673  18.70   0
        73    233.3205    758.9017 300.0150075 +22.6754196     428.4289     69.68896      1.098     2.00    -12.15676     19.62641     63.91844         7     0.689     0.611  86.71   0
        74    478.9546    753.8235 300.0930519 +22.7476805     402.3927     69.58276      1.340     2.06    -12.04225     19.62641     83.48351         7     0.815     0.483  49.24   0
        75    879.7894    750.1436 300.2190866 +22.8668395     256.4415     69.54732      1.009     2.70    -12.04995     19.62641     56.00453         5     0.765     0.467  48.79   0
        76    230.6222    743.2022 300.0192746 +22.6701090     286.8627     69.51186      1.056     2.05    -12.15834     19.62641     50.42562         5     0.683     0.457 -71.39   0
        77    523.7732    732.1304 300.1140548 +22.7549041     345.3733     69.56503      1.282     3.92    -11.94369     19.62641     54.69481         6     0.922     0.582 -75.69   0
        78    940.2125    728.0052 300.2451246 +22.8785959     2269.947      69.4409      1.118     1.64    -12.09851     19.62641     498.9193        17     0.852     0.819 -65.20   0
        79    545.6065    729.0175 300.1218628 +22.7605608     662.6971     69.52959      1.054     1.98    -11.90938     19.62641     132.4195         8     0.725     0.658  23.10   0
        80    928.6915    719.3773 300.2443386 +22.8726653     819.7639     69.49413      1.046     1.93    -12.00174     19.62641     133.8316        11     0.810     0.680 -79.69   0
        81    291.5922    713.4370 300.0479082 +22.6798751     462.6869     69.56503      1.237     2.73    -11.60422     19.62641     59.86946         8     0.900     0.582 -41.15   0
        82    754.7729    710.5640 300.1929999 +22.8179963     1252.666     69.56503      1.085     1.74     -12.0383     19.62641     234.5502        15     0.893     0.776  81.66   0
        83    959.8766    709.4294 300.2572976 +22.8791557     810.3267     69.54732      1.060     2.19     -12.0946     19.62641     143.4208        11     0.850     0.698  71.35   0
        84    837.3783    696.5899 300.2232846 +22.8387508     342.5561     69.54732      1.199     2.25    -11.69466     19.62641     65.47245         5     0.696     0.483 -85.43   0
        85    873.3488    687.6299 300.2374099 +22.8469610     71929.55     69.58276      1.072     1.81    -11.63631     19.62641     12842.94        95     1.159     1.064  76.02   0
        86   1020.6359    689.3065 300.2827907 +22.8915855     573.9114     67.31372      1.092     2.01    -12.30906     19.62641     101.0538         9     0.771     0.647  74.23  16
        87    725.7330    687.9409 300.1913099 +22.8027954     388.4679     69.60046      1.176     2.48    -12.00612     19.62641     91.16368         8     0.885     0.715 -87.01   0
        88    559.5906    676.5536 300.1432761 +22.7497030     719.7674     69.58276      1.072     2.08    -11.35033     19.62641     123.5841        12     0.804     0.781 -32.86   0
        89    740.8648    673.8228 300.2006145 +22.8032800     4537.597     69.54732      1.128     1.80    -12.03245     19.62641     936.9683        25     0.948     0.887 -73.11   0
        90    242.4399    669.2445 300.0469967 +22.6524517     2327.895     69.63588      1.134     2.06    -11.70338     19.62641     398.8777        18     0.982     0.780  75.19   0
        91    324.3387    667.0934 300.0731590 +22.6764125     534.4377     69.65357      1.107     2.29     -11.4731     19.62641     90.53979         7     0.711     0.619  61.17   0
        92    199.5954    665.1317 300.0350167 +22.6384134     322.8264     69.52959      1.226     3.22    -11.90576     19.62641     54.36992         7     0.944     0.595 -61.81   0
        93    532.7296    662.5111 300.1394808 +22.7376171     350.0551     69.72433      0.962     2.25    -11.28395     19.62641     64.40848         5     0.683     0.459  22.96   0
        94    524.3239    654.7310 300.1393941 +22.7328635     1500.559     69.65357      1.096     2.03    -11.23809     19.62641     242.9643        15     0.867     0.784  79.84   0
        95    514.6349    648.4720 300.1384134 +22.7281615     683.0416     69.56503      1.073     2.23    -11.18647     19.62641      100.969        11     0.873     0.697  69.41   0
        96    177.6974    644.5750 300.0348941 +22.6259469     406.7341     69.49413      1.191     2.31    -11.91878     19.62641     61.77533         6     0.813     0.458  87.27   0
        97    192.2355    643.0521 300.0399072 +22.6298738     367.3733     69.58276      1.192     2.46    -11.82576     19.62641     54.43749         5     0.758     0.483 -35.16   0
        98    248.9449    640.0435 300.0585120 +22.6460306      291.781     69.56503      1.163     2.04    -11.48647     19.62641     46.06419         5     0.598     0.571   4.38   0
        99    961.3404    639.2537 300.2805730 +22.8594411     199.2478     69.61817      1.087     2.54    -11.69045     19.62641      37.4307         5     0.715     0.451  74.66   0
       100    538.2620    638.9349 300.1488677 +22.7325117     260.3589     69.60046      1.016     3.07    -11.15362     19.62641     50.76698         5     0.975     0.400 -29.39   0
       101    217.9013    639.6763 300.0489816 +22.6366088     280.2226     69.70664      1.028     1.83    -11.65798     19.62641     57.37807         5     0.688     0.431  19.77   0
       102    439.3361    638.1946 300.1183235 +22.7026258     831.9906     69.54732      1.085     2.02    -11.02877     19.62641     140.3879         9     0.772     0.659 -24.30   0
       103   1015.1242    635.5590 300.2985479 +22.8744962     505.7751     69.52959      1.125     1.97    -12.08104     19.62641     82.83076         8     0.851     0.519  66.54   0
       104     93.4284    633.3676 300.0123542 +22.5974392      9664.55     69.56503      1.160     2.08    -11.96297     19.62641     1385.907        36     1.069     0.979  61.01   0
       105    524.2108    633.4478 300.1462781 +22.7267228     458.7719     69.58276      1.096     2.46    -11.09388     19.62641     73.28328        11     0.926     0.692  70.86   0
       106     14.6837    634.6578 299.9874769 +22.5741690     485.0187     69.65357      1.389     2.93    -11.86172     19.62641     48.35538         5     0.734     0.445  16.26   0
       107    942.2034    619.5454 300.2810129 +22.8480460     312.8028     69.52959      0.911     1.59    -11.39559     19.62641     107.6155         6     0.648     0.498   2.38   0
       108     39.5249    617.1669 300.0008769 +22.5766135     757.6041     69.56503      1.682     5.96    -11.80569     19.62641     72.08379        14     1.445     0.691 -83.01   0
       109    105.5563    617.8445 300.0211676 +22.5966296     216.0815     69.60046      1.282     3.45    -11.88296     19.62641     31.30046         5     0.747     0.460  71.48   0
       110    444.5672    606.4066 300.1302843 +22.6950753     284.9265     69.56503      1.069     2.54    -10.74989     19.62641     58.27785         6     0.678     0.659 -80.46   0
       111    592.2479    604.4359 300.1768880 +22.7388018     300.9392     69.58276      1.200     2.62    -10.98866     19.62641     54.03014         5     0.746     0.663 -74.08   0
       112    639.7344    603.3050 300.1920414 +22.7527164     237.1827     69.68896      1.084     2.90    -11.00082     19.62641     38.99455         6     0.739     0.551 -47.63   0
       113    610.0454    603.1253 300.1828552 +22.7437625     285.5473     69.54732      1.177     2.96    -10.99445     19.62641     49.57548         5     0.775     0.470 -71.75   0
       114    488.5168    602.2778 300.1453018 +22.7070732     343.1087     69.67127      1.086     2.28    -10.76076     19.62641     65.10012         5     0.689     0.449  65.16   0
       115    922.3042    597.6395 300.2819295 +22.8357913     1661.239     69.54732      1.086     1.93    -11.15409     19.62641     296.2016        14     0.869     0.748  71.14   0
       116    454.1315    597.7414 300.1360766 +22.6954580     854.5411     69.58276      1.262     2.05    -10.73097     19.62641     147.6604        12     0.956     0.688 -81.78   0
       117   1020.3051    595.6381 300.3131417 +22.8645809      320.636     68.22317      1.169     2.45    -11.81107     19.62641     51.55099         5     0.714     0.443 -19.46  16
       118     16.1246    591.5287 300.0019424 +22.5622395     2439.593     69.63588      1.219     2.15     -11.7803     19.62641     368.7788        22     1.026     0.902 -50.68   0
       119    317.6136    584.5549 300.0978981 +22.6507213     4325.615     69.58276      1.137     2.05     -10.9424     19.62641     620.8826        29     1.045     0.939  62.12   0
       120    440.0044    581.5826 300.1369331 +22.6865843     4233.479     69.51186      1.191     1.98    -10.70226     19.62641     701.6981        26     1.021     0.949 -54.46   0
       121    851.5358    575.3282 300.2671205 +22.8081756     919.7026     69.60046      1.107     2.12    -11.10664     19.62641       141.14        12     0.856     0.696  29.18   0
       122    936.2555    572.7402 300.2943728 +22.8328202     6076.812     69.63588      1.121     1.77     -11.1047     19.62641     1203.101        32     1.015     0.916  61.53   0
       123    500.5749    571.1216 300.1591807 +22.7017494      5482.86     69.56503      1.156     1.97    -10.60994     19.62641     910.2719        29     1.021     0.918  77.52   0
       124    228.1480    566.6818 300.0758918 +22.6187513     659.7024     69.60046      1.179     2.61    -11.16186     19.62641     100.2004        10     0.910     0.685  45.90   0
       125    432.2961    559.2418 300.1417956 +22.6778621     2099.653     69.56503      1.174     2.10    -10.66478     19.62641     340.6537        18     0.923     0.848  49.53   0
       126    775.1773    559.0856 300.2486034 +22.7806257     327.3025     69.51186      1.004     1.95    -11.02717     19.62641     69.16826         6     0.675     0.548  57.59   0
       127    410.9852    557.6813 300.1356728 +22.6710222     634.8524     69.54732      1.229     4.20    -10.69004     19.62641     81.80846        10     1.123     0.649 -26.75   0
       128    164.9175    557.4288 300.0592469 +22.5971234     295.3627     69.58276      1.040     1.74    -11.18149     19.62641      62.5624         6     0.693     0.491   6.84   0
       129    852.0252    554.5873 300.2740141 +22.8023658     763.1129     69.56503      1.217     2.29    -11.05967     19.62641     127.4339        10     0.979     0.612 -46.70   0
       130    732.5582    551.6861 300.2377298 +22.7657262     473.5788     69.52959      1.063     2.65    -10.92385     19.62641     77.54439         6     0.852     0.435  70.93   0
       131    548.8592    546.8475 300.1820977 +22.7092628     100156.2     69.61817      1.222     1.95    -10.24495     19.62641     17818.35       131     1.261     1.238 -20.26   0
       132    234.9146    546.8179 300.0844502 +22.6150846     1731.256     69.51186      1.226     2.04     -11.0267     19.62641     293.7386        14     0.896     0.784 -89.47   0
       133    800.5191    542.7072 300.2618228 +22.7835179      312.545     69.70664      1.138     3.34    -11.03618     19.62641      48.9806         5     0.758     0.425 -65.32   0
       134    439.5461    527.1462 300.1544809 +22.6708271     1291.722     69.60046      1.153     2.08    -10.54875     19.62641     186.2347        15     0.899     0.846  84.22   0
       135    836.3224    513.1540 300.2825844 +22.7857602      851.142     69.54732      1.108     1.96    -11.02444     19.62641     146.9397        10     0.780     0.696  70.11   0
       136    707.6337    510.9292 300.2432099 +22.7465527     1288.622     69.56503      1.149     1.97    -10.85682     19.62641     213.0299        13     0.840     0.777 -22.75   0
       137    612.5195    508.0801 300.2145140 +22.7172222     242.5903     69.68896      1.367     4.15    -10.43164     19.62641     34.13971         6     0.992     0.496 -86.09   0
       138    495.1217    506.6720 300.1784270 +22.6816181     421.5859     69.67127      1.321     2.66    -10.31035     19.62641     60.72671         9     0.898     0.630  70.94   0
       139    964.8503    504.6889 300.3254048 +22.8218386     587.1249     69.56503      1.059     1.94    -10.96017     19.62641      132.593         9     0.806     0.636 -72.98   0
       140    950.3317    504.0237 300.3210935 +22.8172979     346.8156     69.56503      1.106     2.14    -10.97122     19.62641     58.07011         7     0.710     0.609 -70.41   0
       141    836.7109    503.5703 300.2858195 +22.7831241     1096.111     69.52959      1.195     2.21    -11.02071     19.62641     171.2994        14     0.949     0.798  89.89   0
       142    590.2322    501.2187 300.2098042 +22.7085706     340.7712     69.54732      1.242     3.55    -10.28518     19.62641     48.95003         7     0.881     0.580 -62.15   0
       143    874.7688    498.3537 300.2993771 +22.7930296     1984.508     69.60046      1.076     2.01    -11.00183     19.62641     336.7773        15     0.890     0.738  75.96   0
       144    106.7933    488.8722 300.0634616 +22.5600210      504.228     69.52959      1.299     3.05    -11.15563     19.62641     84.98332        11     1.010     0.711 -67.69   0
       145    966.5377    488.5510 300.3311746 +22.8177076     336.6427     69.61817      1.144     2.42    -10.95024     19.62641     76.03254         6     0.825     0.436  69.76   0
       146    648.3423    468.8010 300.2384306 +22.7166840     230.2829     69.51186      1.070     2.49    -10.46096     19.62641     48.64803         7     0.785     0.592  66.24   0
       147    963.1626    461.1780 300.3390154 +22.8088318     213.6988     69.58276      1.046     2.53    -10.88816     19.62641      48.4899         6     0.729     0.553  35.91   0
       148    866.0900    457.2766 300.3100175 +22.7786295     445.6161     69.70664      1.107     2.20    -10.87226     19.62641       84.339         7     0.679     0.652 -57.24   0
       149    850.3370    453.6136 300.3062971 +22.7728574     278.9291     69.52959      1.052     3.26    -10.86251     19.62641     51.48689         5     0.731     0.453 -18.08   0
       150    594.8101    451.6886 300.2273206 +22.6957238     1496.918     69.51186      1.196     2.07    -10.06528     19.62641      269.195        14     0.861     0.807  63.62   0
       151    709.1626    461.0466 300.2598928 +22.7326872     408.8505     69.60046      1.237     1.94    -10.61261     19.62641     84.40945         8     0.761     0.615  55.06   0
       152   1005.9443    430.7262 300.3622505 +22.8128960     621.9682     69.60046      1.294     2.62     -10.7859     19.62641      88.9832        10     0.830     0.782 -71.95   0
       153    877.8191    430.3955 300.3224060 +22.7744212     107.0718     69.51186      0.990     2.08    -10.74828     19.62641     42.78354         5     0.690     0.451 -21.20   0
       154    964.3522    429.1217 300.3498000 +22.7999771      382.987     69.56503      1.072     2.27    -10.78895     19.62641     77.71394         7     0.745     0.636  37.36   0
       155    705.3736    425.7716 300.2701712 +22.7214214     405.4707     69.54732      1.195     2.43    -10.18665     19.62641     66.14516         9     0.807     0.690  21.21   0
       156    209.2760    423.5688 300.1165203 +22.5720391      332.262     69.56503      1.295     5.66    -10.53495     19.62641     37.55289         9     1.108     0.815   2.40   0
       157     49.2476    421.8533 300.0673543 +22.5235332     106.7671     69.60046      1.030     4.30    -11.16454     19.62641     35.34818         5     0.858     0.614 -58.49   0
       158   1004.7582    418.0139 300.3660098 +22.8088875     2174.956     69.58276      1.164     1.81    -10.75444     19.62641     424.5756        19     1.066     0.788  66.95   0
       159    271.8379    419.6368 300.1372457 +22.5896776     1692.817     69.63588      1.213     2.09     -10.3328     19.62641     265.3194        19     1.016     0.847  51.25   0
       160    219.0317    414.4102 300.1225272 +22.5723382      3715.49     69.56503      1.250     2.25    -10.43754     19.62641     530.8784        27     1.116     0.931  68.97   0
       161    359.7537    408.6722 300.1681459 +22.6128988     2386.993     69.56503      1.215     2.16    -10.16378     19.62641     379.9132        18     0.920     0.888  68.07   0
       162    984.7646    408.9091 300.3627313 +22.8002828     958.0242     69.52959      1.141     1.80     -10.7324     19.62641     188.0743        12     0.836     0.753  21.22   0
       163    603.9076    405.2938 300.2452228 +22.6851299      8957.84     69.72433      1.223     2.15    -9.879412     19.62641     1379.381        36     1.077     1.001 -84.77   0
       164    937.6517    387.9104 300.3548594 +22.7801374     483.1389     69.58276      1.283     3.88    -10.68093     19.62641     76.93899        10     1.122     0.595   7.35   0
       165    158.5558    385.6129 300.1130833 +22.5459350     1138.408     69.56503      1.262     2.21    -10.50763     19.62641     157.1208        19     1.110     0.891 -73.73   0
       166    544.5554    374.6974 300.2366815 +22.6585541     3250.698     69.58276      1.233     2.15    -9.897326     19.62641     480.6726        21     1.043     0.866  84.35   0
       167    958.3338    375.0108 300.3654981 +22.7826250     492.4519     69.54732      1.044     2.10    -10.64906     19.62641     109.3144         7     0.762     0.566 -74.75   0
       168    259.2389    373.4785 300.1483185 +22.5726544     314.0234     69.54732      1.548     4.22     -10.0342     19.62641     48.33487         6     1.231     0.413  84.66   0
       169    748.7564    363.4267 300.3039342 +22.7165146     535.8656     69.58276      1.237     2.94    -9.892026     19.62641      89.6748        10     1.000     0.744  89.43   0
       170    451.2258    361.1070 300.2120487 +22.6266740     3108.949     69.52959      1.236     2.17    -9.848413     19.62641      460.237        23     1.044     0.889  54.88   0
       171    940.4746    355.3093 300.3663269 +22.7716143     198.1419     69.72433      1.113     3.07    -10.60004     19.62641     42.12642         5     0.713     0.466  70.46   0
       172    843.1541    355.1851 300.3360271 +22.7424279     629.7009     69.58276      1.145     2.15    -10.37216     19.62641     107.3901         8     0.735     0.663 -53.75   0
       173    338.8716    340.3146 300.1838486 +22.5870184     1320.346     69.67127      1.341     2.71    -9.550971     19.62641     159.4095        17     1.017     0.904  55.39   0
       174     57.2569    337.8512 300.0971187 +22.5018440     409.3145     69.61817      1.248     2.54    -10.18171     19.62641     69.76927         7     0.798     0.675  41.76   0
       175    308.1588    329.7787 300.1777180 +22.5747849     14514.49     69.60046      1.273     2.21    -9.531257     19.62641     2098.714        49     1.165     1.093  76.77   0
       176    842.8335    327.0888 300.3450502 +22.7342590     623.5862     69.52959      1.175     2.18    -10.21086     19.62641     116.2248        10     0.938     0.637  24.58   0
       177      4.4233    317.7132 300.0872468 +22.4802162     2280.698     67.47832      1.219     2.21    -9.894217     19.62641      296.997        20     0.974     0.918  80.53  16
       178    182.4434    315.8055 300.1431721 +22.5330727     186.3438     69.56503      1.124     3.40      -10.144     19.62641     30.22539         5     0.774     0.431 -67.37   0
       179    406.9351    315.0493 300.2132226 +22.6001736     350.9178     69.58276      1.396     3.07    -9.440049     19.62641     39.14635         5     0.650     0.567   1.82   0
       180    718.4391    309.2902 300.3120668 +22.6918796     777.1388     69.56503      1.082     2.21    -9.801982     19.62641     128.7887        12     0.902     0.705  37.28   0
       181    380.3426    294.1372 300.2117388 +22.5861979     992.5009     69.61817      1.327     2.66    -9.280101     19.62641     114.7311        16     1.166     0.762  53.86   0
       182    819.2993    286.6064 300.3508581 +22.7155771     315.6625     69.45864      1.362     2.49    -9.954727     19.62641     41.01599         5     0.687     0.471 -15.08   0
       183    701.5091    284.7609 300.3147561 +22.6797605      318.668     69.54732      1.444     3.43    -9.832767     19.62641     32.31703         5     0.760     0.446 -68.55   0
       184    456.1274    273.2039 300.2421118 +22.6029063     629.9875     69.51186      1.295     2.64     -9.43813     19.62641     79.98225        10     0.854     0.722   2.07   0
       185    700.9193    265.1413 300.3209411 +22.6739475     1064.709     69.61817      1.168     2.03    -9.802294     19.62641     182.7999        11     0.795     0.737  56.92   0
       186    962.1559    259.5194 300.4041875 +22.7505753      1547.64     69.54732      1.099     1.96    -10.34318     19.62641     268.1607        14     0.919     0.758  61.40   0
       187    408.9262    248.8590 300.2353275 +22.5817677      235.051     69.60046      1.158     2.71    -9.168544     19.62641     46.68784         6     0.736     0.561  53.73   0
       188     84.3457    243.5007 300.1361592 +22.4829033     659.6229     69.65357      1.538     4.00    -9.902505     19.62641     61.16244        12     1.170     0.785 -27.54   0
       189    978.1467    239.4964 300.4156737 +22.7496072      169.763     69.63588      0.944     1.96    -10.19152     19.62641     55.30095         5     0.684     0.473  19.26   0
       190    168.2325    235.4224 300.1648463 +22.5057446     273.8902     69.56503      1.015     3.09    -10.00654     19.62641     37.49141         5     0.743     0.430  23.67   0
       191    772.1561    226.6357 300.3556326 +22.6842235      304.821     69.61817      1.389     4.20    -9.879757     19.62641     44.87099         7     0.773     0.652  -9.49   0
       192    870.5563    215.5954 300.3898836 +22.7105207     1017.674     69.58276      1.201     2.20    -9.924717     19.62641     132.7443        12     0.833     0.772  82.89   0
       193    289.3297    213.2809 300.2096761 +22.5357006     903.7768     69.67127      1.150     2.32    -9.247617     19.62641     150.3458        13     0.900     0.757  54.44   0
       194    367.1649    208.3468 300.2354838 +22.5576177     550.2726     69.58276      1.426     2.35    -9.208892     19.62641     68.64627         9     0.829     0.666 -73.46   0
       195    769.1593    207.3708 300.3609509 +22.6777899     249.3704     69.58276      0.919     2.03      -9.7193     19.62641     52.62574         5     0.695     0.444  20.78   0
       196    184.1162    200.1951 300.1812141 +22.5003979     388.2879     69.49413      1.476     3.02    -9.681065     19.62641     43.46816         6     0.731     0.574  39.70   0
       197    721.7394    197.1009 300.3495093 +22.6606352     833.9957     69.63588      1.240     2.48    -9.611471     19.62641     116.9399        13     0.906     0.822 -63.56   0
       198    205.2614    193.8573 300.1898429 +22.5049193     240.1913     69.63588      1.280     3.89    -9.584189     19.62641     42.16995         6     0.783     0.552 -40.35   0
       199    993.2791    189.3752 300.4366595 +22.7397277      496.537     69.54732      1.175     3.07    -9.978873     19.62641     68.27623        10     1.043     0.688  46.42   0
       200    726.0336    188.5800 300.3536120 +22.6594730     419.2926     69.56503      1.054     2.11    -9.571182     19.62641     70.36153         8     0.753     0.661  80.45   0
       201    646.4405    187.7699 300.3290829 +22.6353978     615.4318     69.56503      1.399     2.88    -9.363874     19.62641     72.00081        12     0.954     0.799  48.92   0
       202    841.8152    179.2406 300.3927221 +22.6914645     750.9465     69.58276      1.223     2.41    -9.487203     19.62641     109.1448        10     0.837     0.688  66.73   0
       203    572.3082    179.5645 300.3086620 +22.6108306     531.9938     69.51186      1.236     2.68    -9.272575     19.62641     61.69536         8     0.886     0.586  67.28   0
       204    853.3989    178.4127 300.3966014 +22.6946953     322.6138     69.38762      1.192     3.17     -9.50083     19.62641     46.68055         8     0.877     0.679 -88.90   0
       205   1014.6755    169.1143 300.4499078 +22.7403071     876.7552     69.67127      1.220     2.21    -10.07424     19.62641     131.0843        11     0.868     0.730  70.85   0
       206    970.4102    168.5304 300.4362910 +22.7268882     504.8007     69.54732      1.140     2.24    -9.738773     19.62641     80.02628         8     0.725     0.703 -81.01   0
       207    204.7910    161.9607 300.2000455 +22.4956229     347.9505     69.56503      1.296     2.95    -9.392675     19.62641     49.25584         6     0.861     0.483 -52.85   0
       208     66.5244    156.5961 300.1588209 +22.4526222     941.8932     69.47639      1.261     2.41    -9.376411     19.62641     137.5945        15     0.934     0.833  82.50   0
       209    889.6652    153.4037 300.4160215 +22.6983652     323.7886     69.58276      1.167     2.95    -9.326964     19.62641     50.33458         7     0.889     0.524 -58.90   0
       210     16.1141    153.2590 300.1442455 +22.4365458     266.0875     69.67127      1.280     2.46     -9.36645     19.62641     47.28894         5     0.681     0.657 -63.72   0
       211    223.9290    150.0581 300.2098559 +22.4979441     2797.378     69.60046      1.298     2.27    -9.405639     19.62641     425.5226        23     1.020     0.932  80.34   0
       212      8.1131    144.3434 300.1446528 +22.4315879     693.3958     69.65357      1.360     2.70    -9.346409     19.62641     81.24367         9     0.846     0.691 -70.95   0
       213   1022.5884    137.2434 300.4627168 +22.7335108     8718.975     59.76749      1.149     2.10    -9.805019     19.62641     1355.245        31     1.071     0.889  88.30  24
       214    867.9129    131.3090 300.4164085 +22.6855007     1748.457     69.72433      1.242     2.17    -9.256587     19.62641     263.1822        19     0.974     0.894  83.62   0
       215    971.6577    130.0384 300.4491687 +22.7161939     1304.125     69.56503      1.120     2.09    -9.475347     19.62641     213.8191        16     0.993     0.760  75.82   0
       216    417.6853    126.6294 300.2777129 +22.5492937     271.2237     69.56503      1.175     3.80    -9.071999     19.62641     40.35809         6     0.861     0.699  76.59   0
       217    341.4987    118.4683 300.2566607 +22.5241172     248.4548     69.65357      1.091     3.74    -9.168903     19.62641     27.11787         6     0.962     0.419  71.59   0
       218    468.7521    114.1320 300.2976567 +22.5610067     801.1792     69.56503      1.371     2.69    -9.092404     19.62641      117.362        13     0.981     0.868  81.78   0
       219    242.8766     94.0441 300.2339157 +22.4875434     2891.084     69.54732      1.313     2.20     -9.25574     19.62641     441.0631        25     1.120     0.946 -88.72   0
       220     93.8208     93.3521 300.1878154 +22.4426574     463.2972     69.60046      1.366     2.19    -9.288089     19.62641     52.68731         6     0.697     0.583  69.19   0
       221      4.7202     84.5361 300.1629976 +22.4134088     323.7878     68.38558      1.872     4.92    -9.237312     19.62641     32.42705         5     1.235     0.574  28.26  16
       222    488.9360     79.2777 300.3152432 +22.5570421     3089.778     69.65357      1.294     2.21    -9.067889     19.62641     450.3113        21     1.033     0.904  78.90   0
       223    374.3240     79.0528 300.2796552 +22.5226354      296.552     69.58276      1.275     4.25     -9.14071     19.62641     46.39614         7     0.798     0.646  65.12   0
       224    546.4698     73.2188 300.3351164 +22.5725377     219.1896     69.58276      1.270     4.64    -8.915256     19.62641     26.64008         6     1.002     0.610 -24.65   0
       225    741.4597     68.4966 300.3973742 +22.6295812     431.4554     69.63588      1.474     3.35    -8.751072     19.62641     46.29434         8     0.965     0.589  45.13   0
       226    617.2195     59.2583 300.3616719 +22.5897186     3049.793     69.54732      1.253     2.34    -8.638223     19.62641     407.5103        21     1.029     0.903  80.27   0
       227    392.1798     58.1583 300.2919860 +22.5219848     715.6495     69.60046      1.313     2.65    -9.130318     19.62641     104.4523        12     0.919     0.822  86.09   0
       228    658.2029     56.4911 300.3753325 +22.6011980     458.0432     69.47639      1.172     2.50    -8.426053     19.62641     74.84393         7     0.726     0.606  19.00   0
       229    674.0822     52.7781 300.3814825 +22.6048864     396.2126     69.52959      1.330     4.43    -8.333023     19.62641     41.97864        10     1.146     0.695  22.45   0
       230    141.0021     50.7979 300.2162759 +22.4445883     386.4921     69.35208      1.294     3.06    -9.327838     19.62641     52.02311         8     0.947     0.573 -64.39   0
       231    944.1678     49.8676 300.4666004 +22.6849113       169.79     69.56503      1.213     3.62    -9.127309     19.62641     50.31499         7     1.042     0.492  67.44   0
       232    712.7382     47.9233 300.3950983 +22.6150670      131.129     69.61817      1.086     3.75    -8.487668     19.62641     41.48869         7     0.766     0.649 -84.60   0
       233    661.4169     44.1033 300.3803509 +22.5986002     1421.959     69.47639      1.299     2.35    -8.310594     19.62641     199.0994        17     0.969     0.897 -62.62   0
       234    676.3785     42.8561 300.3854154 +22.6027224     301.7097     69.60046      1.541     4.29    -8.253839     19.62641     46.73151         8     1.532     0.342  48.40   0
       235    747.7737     35.6316 300.4099997 +22.6220246      701.434     69.56503      1.190     2.21    -8.637769     19.62641     129.9087        11     0.859     0.745 -63.90   0
       236    685.9913     28.7206 300.3929935 +22.6015381     270.1918     69.51186      1.219     3.78    -8.190029     19.62641     51.77486         9     1.024     0.618  53.58   0
       237    491.7352     28.2269 300.3326699 +22.5432142     391.7216     69.54732      1.246     3.01    -9.083626     19.62641     61.92391         9     0.835     0.754  -2.50   0
       238    395.3921     26.4959 300.3032527 +22.5138527     368.5545     69.45864      1.505     5.07    -9.146815     19.62641     42.69118         9     1.178     0.616  86.36   0
       239    778.2585     25.0089 300.4229433 +22.6280982     235.5023     69.52959      1.405     4.27    -8.880236     19.62641     30.28727         6     0.917     0.565  -0.25   0
       240    126.0000   1018.8994 299.8970519 +22.7176943     732.5289     69.40538      2.584     8.45     24.21066     19.62641     37.78743        13     1.765     1.129 -68.39  18
       241     53.9652    987.3690 299.8849414 +22.6870226     1707.711     69.58276     21.073    36.07   -0.9309752     19.62641     52.34538       214     7.393     4.885  40.20  19
       242    193.7915   1013.9348 299.9197320 +22.7366360     676.2949     69.54732      6.337     8.06     23.28246     19.62641     44.43202        12     2.037     0.892 -83.94  18
       243    635.0977    996.9203 300.0625464 +22.8642528     4592.047     69.68896      1.207     1.95    -13.75106     19.62641     804.9781        26     0.992     0.932 -68.40   3
