#   1 NUMBER                 Running object number                                     
#   2 X_IMAGE                Object position along x                                    [pixel]
#   3 Y_IMAGE                Object position along y                                    [pixel]
#   4 ALPHA_J2000            Right ascension of barycenter (J2000)                      [deg]
#   5 DELTA_J2000            Declination of barycenter (J2000)                          [deg]
#   6 FLUX_APER              Flux vector within fixed circular aperture(s)              [count]
#   7 FLUXERR_APER           RMS error vector for aperture flux(es)                     [count]
#   8 FLUX_RADIUS            Fraction-of-light radii                                    [pixel]
#   9 FWHM_IMAGE             FWHM assuming a gaussian core                              [pixel]
#  10 BACKGROUND             Background at centroid position                            [count]
#  11 THRESHOLD              Detection threshold above background                       [count]
#  12 FLUX_MAX               Peak flux above background                                 [count]
#  13 ISOAREA_IMAGE          Isophotal area above Analysis threshold                    [pixel**2]
#  14 A_IMAGE                Profile RMS along major axis                               [pixel]
#  15 B_IMAGE                Profile RMS along minor axis                               [pixel]
#  16 THETA_IMAGE            Position angle (CCW/x)                                     [deg]
#  17 FLAGS                  Extraction flags                                          
         1    166.1933     14.2147 300.2354687 +22.4424179     1922.794     69.03306      1.312     2.27    -8.319424     19.50117     264.3818        19     1.061     0.938 -74.56   0
         2    727.5801      6.4237 300.4127086 +22.6083685     495.8618     69.12115      1.171     2.89    -8.395488     19.50117      64.4071         8     0.923     0.616  56.35  16
         3    282.0057      6.5429 300.2739645 +22.4749271     623.9609     69.08593      1.224     2.59    -8.863558     19.50117     86.19411        10     0.838     0.772  41.88   0
         4    765.6998      1.8935 300.4260567 +22.6184796     221.7133     56.89533      1.283     4.72    -8.318146     19.50117     40.63813         5     0.888     0.712 -77.03  24
         5    193.7323   1014.5209 299.9189670 +22.7375776     820.3896      69.2267      5.104    10.23     24.34877     19.50117     30.11257        17     2.165     1.348  76.13  16
         6    290.8703   1022.7458 299.9464863 +22.7691097     653.0852     58.66452      1.222     2.39    -12.97449     19.50117     86.27911        10     0.854     0.714  67.30  24
         7     56.2808    941.6046 299.8999989 +22.6753995     1678.421     69.05069     16.529    23.38    -7.025488     19.50117     46.94388        93     5.711     2.657 -71.33   3
         8     51.8587    980.2454 299.8860456 +22.6851391     1815.692     69.15635     17.811    29.46    -1.743381     19.50117     46.86885       170     5.270     4.573  17.04   3
         9     74.1881    962.8002 299.8986615 +22.6868506     2555.388     68.94486     28.395    77.31    0.5222725     19.50117     66.65028      1315    17.027     9.740 -84.29  19
        10     72.9843    931.5402 299.9084638 +22.6775343     2049.546     69.08593     19.453    26.16     -7.38341     19.50117     53.54367       145     6.464     2.940   4.57   3
        11     72.5016    919.4749 299.9122413 +22.6739330     1874.849     69.24428     15.109    23.57    -8.706007     19.50117      45.2402       121     5.133     3.005 -18.59   3
        12    142.3936   1018.0339 299.9018683 +22.7231620     485.2939     69.12115      2.412     6.95     24.89715     19.50117     32.43551         8     2.063     0.657  37.99  16
        13    161.7394    986.4528 299.9181635 +22.7199265     1147.738     69.17394      4.445    10.54     13.94267     19.50117     39.22819        17     2.021     1.531 -76.71   2
        14     73.4192   1004.8221 299.8847407 +22.6986560     2441.483     69.12115     15.314    24.25     10.71385     19.50117      54.9172       155     5.627     2.902  79.79  19
        15    921.9013    980.5845 300.1567043 +22.9464062     391.9394     69.03306      1.126     1.48    -13.61207     19.50117      75.4866         5     0.606     0.462  25.81   0
        16    204.8461   1005.4422 299.9253776 +22.7383149     890.6097     69.19154      9.014    11.52     20.71974     19.50117     32.54445        22     2.044     1.809 -78.14   3
        17    213.6517    999.6954 299.9299860 +22.7393133     1410.245     69.19154     13.052    13.29     18.82901     19.50117     52.59177        39     3.661     1.343 -11.73   3
        18    214.6734    992.2715 299.9327209 +22.7374931     1949.329     69.17394     12.184    26.47     15.68172     19.50117      69.8783       104     5.890     3.303  10.37  19
        19    194.5247    996.8267 299.9249750 +22.7327463     2011.193     69.12115      7.870    18.82     17.65586     19.50117     115.4988        77     3.536     2.783 -33.71   3
        20    143.7112    968.0897 299.9185399 +22.7092504     791.5872     69.27942      4.835     7.24      7.74971     19.50117      35.4115        11     1.528     0.960  22.38   2
        21    542.4062   1001.7562 300.0315783 +22.8386156      1064.39     69.13875      1.059     2.01    -12.87204     19.50117     180.0113        12     0.829     0.725  58.29   0
        22    647.1937    964.0419 300.0764859 +22.8592494     3347.744     69.15635      1.221     2.05    -13.18236     19.50117     569.0441        23     0.994     0.889  60.08   0
        23    125.8523    964.9182 299.9140231 +22.7029773     640.9785     69.15635      4.632     5.12     6.563907     19.50117     31.97575         6     1.046     0.710  89.66   0
        24     33.3937   1000.7233 299.8736428 +22.6854562     468.4962     69.03306      2.599     5.23    -6.031544     19.50117     29.35028         5     1.041     0.743  10.48   0
        25    555.8265    954.8895 300.0510166 +22.8292055     743.7324     69.08593      1.096     2.10    -12.84178     19.50117     140.2107         9     0.787     0.677 -20.42   0
        26    628.8774    997.0002 300.0600497 +22.8632048     3986.407      68.9978      1.182     1.91    -13.52823     19.50117     740.5223        28     1.035     0.937  47.03   2
        27    449.3155    951.1572 300.0190815 +22.7961655     615.5314     69.08593      1.265     2.67    -12.76597     19.50117     82.46539        10     0.862     0.782  53.38   0
        28    380.2272    949.4493 299.9981430 +22.7749351     3092.428     69.13875      1.090     1.89    -12.67379     19.50117     537.0605        20     0.913     0.846 -74.66   0
        29    111.9019    949.9019 299.9145772 +22.6944850     729.2629     69.31454      3.952     3.92     1.151189     19.50117       30.711         5     1.706     0.258  50.03   3
        30    106.0752    948.4396 299.9132429 +22.6923158     1359.534     69.08593     12.243    12.38    0.3612798     19.50117     41.94505        28     2.303     1.852  40.65   2
        31    634.4851    994.6509 300.0625611 +22.8642140     4425.085     69.10354      1.101     1.93    -13.50797     19.50117     655.0303        26     1.017     0.882 -73.00   2
        32    226.7924    978.3916 299.9410074 +22.7371560     1801.599     68.98016      5.555    18.61     9.259405     19.50117     54.45563        67     4.380     2.198   6.88   3
        33    237.2549    987.1222 299.9414171 +22.7427999     3951.167     69.15635      6.039    26.32     8.663939     19.50117     109.3394       203     8.196     2.347  67.81  19
        34    229.7874    984.1005 299.9400797 +22.7396913     2039.966     69.03306      8.679    14.37      10.4301     19.50117     60.49979        54     3.178     1.806 -88.71   3
        35    412.5508    935.7875 300.0126464 +22.7807228     232.9328     69.17394      1.014     2.57    -12.71226     19.50117     37.23083         5     0.713     0.448  67.13   0
        36    926.5175    927.8989 300.1752986 +22.9326707     936.4057     69.27942      1.091     1.85    -13.18519     19.50117     177.6035        11     0.835     0.662  20.13   0
        37    715.1510    915.8129 300.1133555 +22.8658051     391.8062     69.15635      1.528     2.95    -12.69165     19.50117     54.49237         9     0.884     0.730 -81.15   0
        38     99.1590   1021.3054 299.8873697 +22.7111104     1951.959     64.72041      5.884    19.41     26.30413     19.50117     67.14616       103     5.305     1.973  14.77  27
        39    749.8661    911.1050 300.1257038 +22.8748687     642.5123     69.24428      1.315     2.22    -12.65956     19.50117     119.8862        11     1.137     0.577 -72.42   0
        40    527.1696    911.6833 300.0561619 +22.8082152     265.6962     69.13875      1.086     4.11    -12.61315     19.50117     44.59005         5     1.005     0.479  59.97   0
        41    772.3571    904.7159 300.1347917 +22.8797822     5526.794     69.08593      1.078     1.76    -12.61737     19.50117     1071.843        31     0.996     0.934 -80.78   0
        42    963.3380    904.0059 300.1945594 +22.9368539     308.3337     69.10354      1.412     3.08    -12.92938     19.50117     53.73546         6     0.850     0.607  53.49   0
        43    817.8599    904.4584 300.1490561 +22.8933567     213.7038     69.19154      0.914     1.98    -12.62511     19.50117     62.12885         6     0.698     0.573  77.17   0
        44     78.4716   1017.3088 299.8822443 +22.7037504     2969.317     69.27942     14.262    41.26      16.0228     19.50117     66.55989       422     8.622     5.481   7.23  27
        45    477.4433    892.8849 300.0468041 +22.7879006     221.1806     69.08593      1.127     3.37    -12.47298     19.50117     40.87524         5     0.752     0.437 -67.35   0
        46    780.9765    886.7120 300.1433383 +22.8772017     829.7087     69.05069      1.159     1.75    -12.49079     19.50117     157.9295         9     0.798     0.612  70.96   0
        47    818.5441    880.1460 300.1571835 +22.8865852     287.5184     69.15635      1.050     2.67     -12.4446     19.50117     67.74124         5     0.736     0.568  18.61   0
        48    718.7897    870.6583 300.1291875 +22.8539420     350.8952     69.08593      1.135     2.88    -12.36706     19.50117      51.2505         7     0.723     0.653  27.11   0
        49    431.4297    867.0856 300.0408828 +22.7666924     2061.258     69.12115      1.103     1.98    -12.30778     19.50117     358.9102        20     0.939     0.890 -89.14   0
        50    209.7693    855.7129 299.9756489 +22.6968883     169.4831     69.10354      0.936     3.78    -11.66683     19.50117     31.77757         5     0.909     0.451  46.25   0
        51    156.6921    852.5898 299.9601684 +22.6800550     407.2905     69.06831      1.174     2.94    -11.39314     19.50117     78.70451         9     1.002     0.724 -15.10   0
        52    133.7867    849.9620 299.9539056 +22.6724234     746.2408     69.13875      1.221     1.98    -11.46294     19.50117     150.1635        13     1.013     0.738 -67.90   0
        53   1005.3842    838.6301 300.2289534 +22.9306918     1050.132     69.12115      1.053     2.01    -12.53815     19.50117     172.2083        13     0.836     0.757  29.17   0
        54    959.5977    837.0714 300.2151798 +22.9165180     1012.577     69.06831      1.039     1.97    -12.41539     19.50117     191.7534        13     0.870     0.767 -57.37   0
        55    665.4184    836.8596 300.1235621 +22.8282348     215.8314     69.08593      1.122     3.47    -12.22283     19.50117     28.93188         5     0.794     0.437 -69.83   0
        56    127.1115   1017.7564 299.8972101 +22.7184916     809.9916     69.12115      2.437     7.72     25.01463     19.50117     38.83746        16     1.661     1.004  27.76  16
        57    611.2817    825.2241 300.1104886 +22.8086559      2196.52     69.08593      1.068     1.75    -11.89829     19.50117      453.153        17     0.862     0.810 -65.72   0
        58    413.4632    822.2664 300.0498781 +22.7484484     342.2912     69.17394      1.012     2.34    -11.83363     19.50117     53.35418         5     0.688     0.459  67.60   0
        59    161.5706    819.1501 299.9725657 +22.6719367     740.4834     69.13875      1.173     2.31    -11.61833     19.50117     121.0817         9     0.809     0.714 -86.79   0
        60    632.0624    817.5109 300.1194699 +22.8126773     305.5052     69.20912      1.180     2.52    -11.97511     19.50117     62.51708         9     0.847     0.725 -14.62   0
        61    787.2469    804.8956 300.1719196 +22.8556035     2006.297     69.13875      1.082     1.71    -12.29484     19.50117     431.8498        17     0.894     0.784  84.10   0
        62   1004.2343    804.9279 300.2395625 +22.9206704     494.0492     69.12115      1.033     1.75    -12.43289     19.50117     125.5237         8     0.725     0.601  49.96   0
        63    150.6010    795.4343 299.9768727 +22.6618458     559.4449     69.08593      1.151     2.75    -11.75425     19.50117     99.13367        11     0.924     0.768  -5.04   0
        64   1023.0616    792.6323 300.2494366 +22.9227832     1062.227     57.04486      0.621     1.10    -12.41945     19.50117     499.7234         5     0.484     0.385 -80.99  24
        65    300.4597    787.6512 300.0259913 +22.7046053      26360.6     69.17394      1.127     1.99    -11.68416     19.50117     3842.562        58     1.104     1.038 -88.76   0
        66    558.1291    786.4955 300.1065407 +22.7815992     828.2261      69.2267      1.147     2.05    -11.66535     19.50117      137.144        11     0.827     0.754  54.26   0
        67    971.2195    785.3896 300.2356224 +22.9051639     484.4101     69.10354      1.153     2.67    -12.24925     19.50117     84.62917         9     0.830     0.776 -77.75   0
        68    228.7218    785.7474 300.0043057 +22.6825242     269.0165     69.15635      1.332     3.76    -11.75647     19.50117     39.03604         6     0.727     0.660 -27.55   0
        69    587.2532    782.5246 300.1169003 +22.7891975     515.4309     69.13875      1.198     2.27     -11.6599     19.50117       84.313         6     0.771     0.515  47.79   0
        70    597.8702    780.9335 300.1207238 +22.7919261     348.3036     69.15635      1.212     1.94    -11.65627     19.50117     71.75389         6     0.795     0.450  59.17   0
        71    703.4453    776.8582 300.1549313 +22.8224247      211.952     69.15635      1.383     4.99     -12.0143     19.50117     33.85452         7     0.914     0.770  24.11   0
        72    350.1558    764.8500 300.0488649 +22.7129838     15678.47     69.15635      1.170     1.91    -11.43259     19.50117     2912.479        47     1.076     0.995  86.13   0
        73    741.2762    767.3063 300.1698252 +22.8310293     391.7297     69.24428      1.132     1.88    -11.96168     19.50117     66.23334         6     0.654     0.571 -46.23   0
        74    364.3979    765.3152 300.0531437 +22.7173916     1010.301     69.05069      1.101     1.93      -11.421     19.50117     151.3386        12     0.877     0.703 -83.25   0
        75    873.1513    760.4297 300.2131635 +22.8685983     1420.819     69.13875      1.051     1.58    -11.93327     19.50117     271.4364        14     0.902     0.711  77.87   0
        76    467.5266    757.0697 300.0879127 +22.7459745     140.7119     69.19154      1.026     4.19    -11.52428     19.50117     35.15482         6     1.026     0.489 -83.51   0
        77    630.9872    756.3370 300.1390387 +22.7948031     516.5496     69.10354      1.219     3.15    -11.66589     19.50117     77.72214         9     1.026     0.584  61.16   0
        78    232.7950    756.5448 300.0150720 +22.6753754     455.2095     69.10354      1.192     2.00    -11.74621     19.50117     62.00596         6     0.700     0.493  -8.22   0
        79    478.1456    751.4252 300.0930536 +22.7475416     376.6259     69.13875      1.036     2.14     -11.5387     19.50117     72.50753         8     0.744     0.644  87.03   0
        80    879.2880    747.9963 300.2191216 +22.8668687     322.1361     69.05069      1.041     1.94    -11.84481     19.50117     67.69228         7     0.692     0.617 -56.51   0
        81    336.2689    747.2213 300.0502803 +22.7037609     146.9195     69.12115      0.989     3.57    -11.40671     19.50117     35.97297         6     0.763     0.552  38.10   0
        82     65.5840    745.8087 299.9666005 +22.6220948      197.594     69.05069      1.029     4.14    -11.89714     19.50117     36.69329         6     0.935     0.568 -23.38   0
        83    230.0378    740.9631 300.0192833 +22.6700807     282.1126     69.19154      1.174     2.69    -11.74878     19.50117     48.79789         5     0.772     0.496  28.11   0
        84    523.4695    729.7064 300.1142256 +22.7549096     181.2109     69.24428      1.137     3.07     -11.4963     19.50117     38.87682         5     0.736     0.450  68.23   0
        85    545.0355    727.0563 300.1218009 +22.7606190     656.0038     69.13875      1.085     1.90    -11.50074     19.50117     145.4707        10     0.791     0.708 -83.66   0
        86    939.5143    725.8146 300.2451166 +22.8785539     2143.224     69.06831      1.089     1.85    -11.82639     19.50117      373.929        18     0.884     0.819  88.05   0
        87    928.0887    717.1949 300.2443575 +22.8726541     848.1264     69.03306      1.185     1.79    -11.77366     19.50117     180.9279        11     0.898     0.757 -17.95   0
        88    290.8952    711.2122 300.0478818 +22.6798173     368.3881     69.05069      1.034     1.87    -11.40592     19.50117     88.89302         8     0.743     0.613  57.83   0
        89    754.0717    708.5671 300.1929200 +22.8180070     1339.263     69.12115      1.131     2.00     -11.5731     19.50117     219.5004        14     0.841     0.805  36.92   0
        90    959.1407    707.3288 300.2572505 +22.8791283     881.6459     69.15635      1.116     1.78    -11.82126     19.50117     160.0016        10     0.856     0.620  43.17   0
        91    139.7762    695.1865 300.0061166 +22.6298612     280.8669     69.12115      1.116     2.62    -11.74312     19.50117     46.41041         6     0.729     0.555 -51.82   0
        92    836.6709    693.8127 300.2234614 +22.8385363     245.0248     69.13875      1.178     2.46    -11.54905     19.50117     60.40071         5     0.803     0.411  40.87   0
        93    872.7733    685.4501 300.2374356 +22.8469579     72190.16     69.13875      1.079     1.77    -11.53315     19.50117     12850.74        99     1.177     1.061  85.88   0
        94   1019.7255    687.0636 300.2827394 +22.8914652     615.1692     68.96251      1.097     1.84    -11.85906     19.50117     128.0707        10     0.871     0.641   6.69  16
        95    725.0791    685.6932 300.1913263 +22.8027478     335.3269      69.2267      0.973     2.22    -11.41689     19.50117      65.6449         7     0.713     0.619 -26.65   0
        96    905.5279    678.2705 300.2499830 +22.8547144      276.445     69.19154      1.007     2.88    -11.61371     19.50117     48.82166         7     0.909     0.485  81.05   0
        97    559.0217    674.2869 300.1433179 +22.7496738     820.2502     69.05069      1.153     2.06    -11.05659     19.50117     158.7627        12     0.859     0.781  68.22   0
        98    740.2272    671.6506 300.2006129 +22.8032590     4555.646     69.13875      1.113     1.92    -11.41111     19.50117     792.9482        25     0.982     0.848  79.75   0
        99    241.8897    666.9515 300.0470382 +22.6524175     2481.813     69.12115      1.230     1.95    -11.21412     19.50117     432.4571        21     1.004     0.874  55.93   0
       100    323.9928    665.1631 300.0731502 +22.6765443     617.3122     69.12115      1.284     2.55    -10.94562     19.50117     112.1998        11     0.865     0.809 -63.66   0
       101    199.4197    663.1346 300.0350766 +22.6385760     237.2205     69.10354      1.073     2.68    -11.39952     19.50117     42.11132         5     0.717     0.459  70.86   0
       102    532.0332    660.4260 300.1394234 +22.7376013     396.7946     69.13875      0.995     1.63    -10.96539     19.50117     74.61726         6     0.686     0.494   1.24   0
       103    523.7149    652.5587 300.1393922 +22.7328488     1655.002     69.08593      1.126     2.00    -10.87852     19.50117     267.6493        14     0.886     0.750 -56.52   0
       104    514.0165    646.4672 300.1383541 +22.7281918     656.7287     69.12115      1.059     1.87     -10.7689     19.50117     118.3593         8     0.713     0.644 -83.50   0
       105    442.7568    645.8765 300.1163684 +22.7066460     61.92741     69.10354      1.103     4.49    -10.70838     19.50117      30.4068         5     0.830     0.689 -52.55   0
       106    907.4864    643.7457 300.2618213 +22.8453870     165.3961     69.17394      0.926     2.97    -11.40591     19.50117     41.25326         5     0.732     0.425 -63.74   0
       107    177.5330    642.2901 300.0350512 +22.6260300     269.6844      69.2267      1.158     2.44    -11.39735     19.50117     55.48532         7     0.767     0.626  64.53   0
       108    191.7417    640.9272 300.0399107 +22.6299039     353.7329     69.15635      1.291     3.76    -11.33303     19.50117     50.72444         9     0.949     0.688  76.13   0
       109    217.4148    637.7388 300.0489279 +22.6366951     223.7663     69.08593      1.063     2.20    -11.22075     19.50117     49.06477         5     0.662     0.484 -78.33   0
       110    960.9603    637.2789 300.2805999 +22.8595556      178.236     69.10354      1.132     2.90    -11.42726     19.50117     40.12527         7     0.728     0.668 -12.76   0
       111    438.7496    635.9749 300.1183410 +22.7026032     922.1388     69.13875      1.266     2.42     -10.6754     19.50117      148.388        12     0.929     0.753 -86.76   0
       112     92.8629    631.1604 300.0123580 +22.5974232     9892.321     69.12115      1.236     2.01    -11.32375     19.50117     1659.153        46     1.150     1.063  88.93   0
       113   1014.4783    632.8889 300.2987207 +22.8743318     453.8314     69.24428      1.062     2.92    -11.44444     19.50117     85.93915         8     0.900     0.626 -54.24   0
       114    523.6859    631.3706 300.1462727 +22.7267603     589.5676     69.12115      1.124     2.17    -10.72936     19.50117     87.71541         6     0.756     0.513  50.14   0
       115    941.4724    617.3377 300.2810063 +22.8479880     546.1628     69.15635      1.055     2.38    -11.24915     19.50117      97.0226         7     0.836     0.496 -85.35   0
       116    104.8827    615.9188 300.0210478 +22.5966618     274.7811     69.26185      1.279     3.53     -11.2043     19.50117     40.71914         6     0.898     0.477  58.32   0
       117     38.8183    615.2261 300.0007487 +22.5766307     790.8397     69.15635      1.613     4.53    -11.16235     19.50117     75.76966        11     1.112     0.776 -78.23   0
       118    808.4232    615.1992 300.2402212 +22.8074968     325.6727     69.05069      1.135     3.05    -11.18324     19.50117     47.43996         7     0.821     0.619  13.59   0
       119    881.9135    609.9771 300.2648280 +22.8280247     298.2206     69.06831      1.067     1.95    -11.16633     19.50117     78.82831         7     0.812     0.487  43.26   0
       120    443.9410    604.3206 300.1302480 +22.6950788     416.1776     69.15635      1.367     2.62    -10.48096     19.50117     62.37888         8     0.904     0.579  64.94   0
       121    591.7637    602.9897 300.1766951 +22.7390329     368.0007     69.12115      1.294     3.10    -10.72297     19.50117     43.05792         7     0.740     0.654  79.96   0
       122    638.8654    601.0814 300.1919836 +22.7526094     276.0211      69.2267      1.148     3.27    -10.72639     19.50117     44.41956         6     0.905     0.455 -54.49   0
       123    609.2530    600.8817 300.1828265 +22.7436725     245.8046     69.15635      1.216     3.06    -10.70469     19.50117     46.34214         5     0.839     0.454 -40.10   0
       124    488.1302    600.0569 300.1453862 +22.7071103     452.5037     69.13875      1.341     2.69    -10.21766     19.50117     79.05051        10     0.884     0.729  21.13   0
       125    921.8384    595.3781 300.2820233 +22.8357970     1646.466     69.13875      1.086     1.92    -11.08098     19.50117     280.9619        15     0.973     0.718 -84.03   0
       126    453.6241    595.7281 300.1360546 +22.6955180     827.7643     69.15635      1.195     2.31    -10.37092     19.50117     131.2964        13     0.898     0.807 -78.07   0
       127   1019.5668    593.6330 300.3130720 +22.8645794     287.3496     69.19154      1.024     2.32    -11.24747     19.50117     49.45576         5     0.665     0.473  71.61  16
       128     15.6505    589.2337 300.0020019 +22.5622245     2462.326     69.13875      1.225     2.23    -11.00079     19.50117     333.8782        21     1.020     0.887 -72.27   0
       129    316.9927    582.4502 300.0978648 +22.6507196     4379.203     69.12115      1.182     2.04    -10.77486     19.50117     723.5087        28     1.017     0.922 -87.04   0
       130    439.4572    579.4544 300.1369363 +22.6865991     4276.721     69.17394      1.115     2.05    -10.41741     19.50117     590.1896        27     1.064     0.901  74.44   0
       131    850.9635    573.1263 300.2671597 +22.8081656     904.3364     69.06831      1.074     1.71    -10.84383     19.50117     203.1114        11     0.848     0.686 -15.18   0
       132    935.6163    570.5430 300.2943937 +22.8327922     6141.194     69.08593      1.043     1.88     -10.9575     19.50117     952.3934        29     0.938     0.909  47.07   0
       133    499.9986    569.0283 300.1591670 +22.7017659     5581.232     69.08592      1.222     2.05    -10.20502     19.50117     966.4655        29     1.074     0.913  80.33   0
       134    227.5503    564.5140 300.0758830 +22.6187374     609.0125     69.12115      1.092     2.12    -10.77562     19.50117     92.26375        11     0.846     0.697  76.24   0
       135    669.6677    564.6125 300.2134330 +22.7513760     276.0232     69.12115      1.145     3.53    -10.44359     19.50117     37.32911         7     0.957     0.474  -7.91   0
       136    431.6595    557.1364 300.1417644 +22.6778563     2050.776     69.15635      1.151     1.98    -10.35629     19.50117     369.6458        18     1.025     0.802 -75.78   0
       137    774.2265    556.8325 300.2485385 +22.7804865     315.1566     69.12115      1.024     2.10    -10.66989     19.50117      70.0817         8     0.740     0.652  50.78   0
       138    410.0597    555.6815 300.1355164 +22.6709599     459.5215     69.20912      1.087     2.05    -10.42716     19.50117     92.42055         8     0.744     0.636  38.72   0
       139    164.0759    554.9492 300.0592611 +22.5969461     341.6144     69.12115      1.344     3.38     -10.8122     19.50117     57.41514         9     0.937     0.721  64.26   0
       140    851.3638    552.5363 300.2739776 +22.8023721      677.586     69.12115      1.213     2.46    -10.67086     19.50117     118.1676        13     1.018     0.728 -52.63   0
       141     72.6433    550.9114 300.0321617 +22.5683464     647.0321     69.12115      0.639     0.82    -10.76089     19.50117     306.5201         5     0.486     0.384 -15.76   0
       142    731.7936    549.5372 300.2376876 +22.7656724     458.7014     69.08593      0.977     1.89    -10.56613     19.50117     76.18755         7     0.750     0.545  79.89   0
       143    548.2850    544.6944 300.1821077 +22.7092629     99819.54     69.29698      1.153     2.07    -10.11948     19.50117     15199.58       124     1.240     1.223  81.07   0
       144    234.4293    544.7634 300.0844409 +22.6151367     1692.736     69.13875      1.168     2.11     -10.6388     19.50117     243.4682        16     0.942     0.794  64.95   0
       145    283.2820    527.2429 300.1053249 +22.6247688     277.3431     69.08593      1.250     3.75    -10.66802     19.50117     37.45577         5     0.957     0.421  -5.35   0
       146    439.0146    524.9560 300.1545122 +22.6708281     1393.706     69.13875      1.240     2.08    -10.10398     19.50117     231.2269        15     0.915     0.797  10.97   0
       147    835.7571    511.0116 300.2826092 +22.7857685     916.8347     69.12115      1.147     2.36     -10.5937     19.50117     160.1112         9     0.901     0.624  77.97   0
       148    706.9380    508.7849 300.2431887 +22.7465201     1270.891     69.06831      1.203     2.05    -10.37485     19.50117     212.4392        12     0.820     0.769  72.72   0
       149    611.9553    505.2763 300.2147437 +22.7170387     204.6911     69.10354      1.133     3.36    -9.949007     19.50117     41.77396         6     0.845     0.617  41.98   0
       150    493.9012    504.7957 300.1781456 +22.6815030     339.5843     69.01543      1.330     3.00    -9.866113     19.50117     50.29824         8     0.867     0.719  56.40   0
       151    964.5297    502.4185 300.3255541 +22.8218845     606.8847     69.15635      1.117     2.09    -10.78063     19.50117     104.3877        10     0.915     0.722 -71.11   0
       152    836.1555    501.1388 300.2859419 +22.7830521     1146.372     69.13875      1.380     2.61    -10.59083     19.50117     153.3005        17     1.348     0.858 -85.37   0
       153    874.2061    496.1924 300.2994115 +22.7930334     2006.834     68.98016      1.132     1.85    -10.60551     19.50117     413.5027        18     0.939     0.786  81.90   0
       154    535.2853    492.3774 300.1950632 +22.6903481     127.6588     69.06831      0.935     3.52    -9.773973     19.50117      31.9303         5     0.786     0.454  15.32   0
       155    966.0590    486.4897 300.3312076 +22.8177660      429.803     69.20912      0.997     2.45    -10.71733     19.50117     70.75617         8     0.785     0.651 -78.04   0
       156    106.3315    486.7601 300.0634755 +22.5600618     477.8326     69.08593      1.118     2.14    -10.60406     19.50117      66.2466         9     0.803     0.646  19.32   0
       157    706.4100    470.7311 300.2553902 +22.7354344     259.6216     69.10354      1.329     3.20    -10.29277     19.50117     43.98309         7     0.942     0.469  79.65   0
       158    647.8491    466.7226 300.2384506 +22.7167300     334.5553     69.12115      1.193     2.42     -10.0147     19.50117     53.99413         7     0.727     0.622   8.67   0
       159    962.1329    459.2986 300.3388189 +22.8087771     270.2118     69.20912      0.999     2.57     -10.6229     19.50117     62.90661         6     0.770     0.616  23.57   0
       160    708.4686    459.0135 300.2598389 +22.7326864     474.6987     69.13875      1.096     2.48    -10.25907     19.50117     72.35583         6     0.750     0.497 -84.96   0
       161    865.5270    454.9741 300.3100996 +22.7785921      576.441     69.12115      1.212     2.50    -10.59939     19.50117     86.72932         9     0.841     0.665 -71.87   0
       162    849.8416    451.3314 300.3063932 +22.7728459     391.7563     69.10354      1.311     2.91    -10.57516     19.50117     54.39914         7     0.860     0.683  -7.29   0
       163    594.2475    449.6525 300.2273037 +22.6957604     1547.983     69.15635      1.146     2.04    -9.756097     19.50117     236.6097        16     0.899     0.844 -85.87   0
       164    954.6473    448.2756 300.3400658 +22.8033673     254.3024     69.12115      1.405     3.41     -10.5825     19.50117     47.48516         5     0.937     0.422 -74.50   0
       165    434.3766    436.3262 300.1818677 +22.6440010     237.8313     69.15635      1.155     3.11    -9.735725     19.50117     42.43863         5     0.723     0.479  82.00   0
       166   1005.5607    428.3583 300.3624179 +22.8128945     631.7922     69.20912      1.082     2.09    -10.55366     19.50117     94.44975         8     0.789     0.556 -72.20   0
       167    877.4031    428.7441 300.3223244 +22.7746146     350.1582     69.08593      1.330     2.64    -10.58514     19.50117     36.95254         5     0.687     0.483 -79.90   0
       168    963.8503    426.9861 300.3498532 +22.8000066       361.43     69.15635      1.086     2.17    -10.53189     19.50117     100.1336        10     0.844     0.689  67.01   0
       169    704.8473    423.4890 300.2702524 +22.7213988     528.1103     69.10354      1.141     2.70     -10.1139     19.50117     84.34312        10     0.884     0.742 -36.49   0
       170    208.8667    421.4586 300.1165585 +22.5720965     299.5409     69.15635      1.139     2.99    -10.13504     19.50117     53.23161         6     0.758     0.599  43.89   0
       171    271.2589    417.5523 300.1372260 +22.5896919     1860.018     69.17394      1.201     2.22    -9.916302     19.50117     236.9766        15     0.901     0.820  80.31   0
       172   1004.1790    415.6374 300.3661197 +22.8088248     2089.353     69.13875      1.103     1.80    -10.49591     19.50117     418.2069        19     0.904     0.866  67.81   0
       173    218.4315    412.3637 300.1224863 +22.5723565      3762.55     69.13875      1.193     2.17    -10.05809     19.50117     512.5286        24     1.045     0.906  81.82   0
       174    359.1740    406.4909 300.1681622 +22.6128859     2488.018     69.05069      1.257     2.26     -9.73211     19.50117     335.8899        19     0.981     0.891  87.84   0
       175    984.1536    406.7494 300.3627604 +22.8002726     784.1977     69.15635      1.079     1.83    -10.43763     19.50117     177.7598        10     0.786     0.664 -59.97   0
       176    603.4122    403.1793 300.2452553 +22.6851638     9059.403     69.10354      1.211     2.07    -9.744551     19.50117     1288.041        36     1.107     0.967  81.01   0
       177    621.0338    403.1412 300.2507554 +22.6904348     446.9031     69.13875      1.791     6.75    -9.764191     19.50117      47.8232        10     1.773     0.722 -32.75   0
       178    937.1531    385.0975 300.3551347 +22.7799724      435.982     69.15635      1.580     5.91    -10.29519     19.50117     55.25349         9     1.350     0.729 -61.48   0
       179    158.0195    383.4514 300.1130984 +22.5459387     985.7216     69.10354      1.237     2.52     -10.2723     19.50117     133.7109        13     0.950     0.760  46.24   0
       180    544.0270    372.6355 300.2366857 +22.6585922     3217.229     69.13875      1.247     2.12    -9.705832     19.50117     499.8705        23     1.020     0.946  80.70   0
       181    957.7286    372.7301 300.3655690 +22.7825811     625.8873     69.19154      1.141     2.20    -10.21749     19.50117     99.71849        11     0.842     0.750  66.80   0
       182    258.7514    372.1776 300.1480747 +22.5729205     289.5424     69.12115      1.232     2.29    -9.773787     19.50117     57.43296         6     0.714     0.592  44.17   0
       183    116.2943    365.2053 300.1060570 +22.5281864     303.9064     69.01543      1.350     4.45    -10.27861     19.50117     26.48651         7     0.891     0.632 -55.85   0
       184    747.8975    361.9389 300.3036592 +22.7166204     612.8112     69.19154      1.417     5.49    -10.09085     19.50117     73.49287        12     1.251     0.841 -61.78   0
       185    450.6494    358.8058 300.2121118 +22.6266279     2996.593     69.10354      1.234     2.28    -9.713545     19.50117     453.2907        22     1.114     0.841  76.77   0
       186    939.3126    353.4196 300.3660974 +22.7715156     149.5104     69.06831      1.160     3.44    -10.08799     19.50117     36.46892         5     0.742     0.460  17.78   0
       187    842.5555    353.1021 300.3360315 +22.7424415     762.0359     69.12115      1.210     2.20      -10.045     19.50117     111.9938        11     0.943     0.709  16.00   0
       188    338.1953    338.2000 300.1838159 +22.5869947     1327.225     68.94486      1.249     2.28    -9.638865     19.50117     185.3741        16     0.981     0.812  62.11   0
       189     56.5720    335.5045 300.0971456 +22.5017484     523.0004     69.05069      1.260     2.83    -10.11278     19.50117     64.43856         8     0.839     0.689  47.82   0
       190    307.5630    327.6499 300.1777142 +22.5747808     14535.82     69.12115      1.238     2.20    -9.603145     19.50117      2032.05        46     1.165     1.029  85.81   0
       191    842.1373    324.9607 300.3450403 +22.7342301     522.0292     69.12115      1.102     2.14    -10.03609     19.50117      109.784         9     0.739     0.700 -70.59   0
       192      3.8357    315.4925 300.0872617 +22.4801852     2298.396     65.22611      1.219     2.28    -9.949064     19.50117     313.0627        17     0.920     0.885  50.60  16
       193    757.3829    314.3206 300.3220793 +22.7057824     315.5033     69.12115      1.374     3.95    -10.01493     19.50117     44.04524         6     0.919     0.486  89.78   0
       194    406.3993    312.7716 300.2132912 +22.6001456     298.8332     69.08593      1.438     3.14    -9.587102     19.50117     32.50177         5     0.724     0.460 -72.58   0
       195    717.8870    307.2396 300.3120718 +22.6919147     839.5562     69.10354      1.154     2.04    -9.944297     19.50117     147.6849        13     0.919     0.764  16.40   0
       196    932.9830    299.8770 300.3815113 +22.7542314     198.2611     69.12115      1.091     2.52    -10.09737     19.50117     66.84899         7     0.855     0.586 -20.44   0
       197    379.8165    292.0143 300.2117602 +22.5862167     1064.618     69.06831      1.413     2.86    -9.516376     19.50117     138.6916        16     1.141     0.778  68.72   0
       198    701.2849    281.8573 300.3151408 +22.6796484     190.5263      69.2267      1.009     3.30    -9.802941     19.50117     48.97005         6     0.992     0.410  77.93   0
       199    455.3719    271.1144 300.2420557 +22.6028665     640.7953     69.12115      1.376     2.95    -9.486285     19.50117     87.39618        11     0.989     0.708  15.92   0
       200    231.8889    266.0941 300.1741680 +22.5344205     10997.35     69.29698      0.543    -3.79    -9.480326     19.50117     6687.174        13     0.729     0.424 -46.13   0
       201    700.4144    263.0919 300.3209620 +22.6739964     1048.314     69.05069      1.170     2.17    -9.655095     19.50117     155.5011        13     0.862     0.805  62.78   0
       202    961.6008    257.3439 300.4042465 +22.7505753     1573.347     69.05069      1.088     2.04    -10.11617     19.50117     229.8291        15     0.957     0.747  87.18   0
       203   1022.8259    251.6810 300.4251838 +22.7672791     238.8746     58.20636      1.242     1.96    -10.22104     19.50117     46.71671         5     0.699     0.435  17.69  24
       204    408.8414    246.8419 300.2354557 +22.5819489     357.1625      69.2267      1.382     2.96     -9.36828     19.50117     62.61021         6     0.894     0.505  69.54   0
       205     83.3913    241.3663 300.1360400 +22.4827870     588.3605     69.12115      1.381     2.45    -9.852743     19.50117     75.20049        11     0.879     0.757 -80.79   0
       206    772.1088    224.0400 300.3559791 +22.6842527     369.5333     69.12115      1.225     4.31    -9.505702     19.50117     53.26889         7     1.123     0.535 -74.76   0
       207    870.0829    213.5124 300.3899362 +22.7105704     984.4215      69.2267      1.273     2.45    -9.910161     19.50117       150.11        14     0.965     0.849  26.31   0
       208    288.9066    210.8992 300.2098137 +22.5356742     1054.182     69.29698      1.266     2.19    -9.442802     19.50117     163.5315        14     0.941     0.820  89.89   0
       209    366.7777    206.3995 300.2354956 +22.5577275     569.8877     69.05069      1.464     4.42     -9.46305     19.50117     62.02444         9     1.172     0.567  68.78   0
       210    768.5652    204.8661 300.3610983 +22.6776812     254.7662     69.12115      1.021     3.01    -9.447485     19.50117     44.46444         5     0.733     0.453  69.62   0
       211    183.4783    198.4010 300.1810900 +22.5004746     360.2115     69.01543      1.272     2.63    -9.462177     19.50117     53.78002         6     0.842     0.447  71.76   0
       212    786.3729    194.7087 300.3699449 +22.6800958      269.468     69.06831      1.206     3.78    -9.466223     19.50117     47.10219         6     0.847     0.534  50.06   0
       213    721.0990    194.8622 300.3495543 +22.6605886     824.3273     69.20912      1.279     2.40    -9.337386     19.50117     132.3323        10     0.861     0.685  77.76   0
       214    992.6486    187.2940 300.4366698 +22.7397318     417.3878     69.15635      1.159     2.96    -9.819548     19.50117     68.12289         7     0.907     0.535  64.54   0
       215    725.1354    186.1532 300.3536384 +22.6592950     437.0029     69.15635      1.369     2.44    -9.329806     19.50117     62.66216         9     0.850     0.676  71.87   0
       216    645.7576    185.8545 300.3290067 +22.6354305     560.9833     69.12115      1.283     2.32     -9.33007     19.50117     84.83568         9     0.841     0.624 -18.87   0
       217    841.2698    177.0978 300.3927722 +22.6914748     708.5273     69.24428      1.219     2.80    -9.605607     19.50117     124.3311        13     1.054     0.764 -64.29   0
       218    572.0005    177.4903 300.3087511 +22.6109294      375.233      68.9978      1.121     2.26    -9.264979     19.50117     71.16935        10     0.905     0.635 -62.53   0
       219    853.1980    175.9471 300.3968643 +22.6947160      421.633     69.08593      1.219     3.47    -9.652482     19.50117     49.50653         8     0.868     0.738  33.32   0
       220   1014.0660    166.8533 300.4499851 +22.7402657     839.2286     69.15635      1.181     2.11    -9.680616     19.50117     160.6078        10     0.857     0.679  59.01   0
       221    969.9392    166.3988 300.4363674 +22.7269251     461.2959     69.08593      1.049     2.41    -9.669046     19.50117     86.95602         8     0.839     0.647 -81.03   0
       222    204.1064    159.6864 300.2000658 +22.4955475     320.2899     69.29698      1.254     3.27    -9.267769     19.50117     46.03627         7     0.989     0.514  63.81   0
       223     65.9685    154.6065 300.1587826 +22.4526658      1187.75     69.12115      1.285     2.45    -9.140182     19.50117     160.8133        16     1.144     0.759  67.03   0
       224    888.9880    151.1028 300.4160856 +22.6982908     304.2335     69.01543      1.053     2.25    -9.565455     19.50117     70.95253         7     0.847     0.481  49.74   0
       225    223.2789    147.9227 300.2098434 +22.4979190     2890.072      69.2267      1.289     2.30    -9.242105     19.50117     358.5659        22     1.015     0.926 -81.96   0
       226      7.3633    142.2915 300.1445724 +22.4315548       622.42     69.08593      1.249     2.94     -9.11592     19.50117     87.42963        11     0.946     0.769  49.91   0
       227    206.6232    138.4095 300.2077519 +22.4901944     294.0345     69.12115      1.012     2.50    -9.221676     19.50117      54.9789         5     0.703     0.470 -77.05   0
       228   1022.0955    135.1137 300.4627901 +22.7335418     8928.576     61.69773      1.195     1.96    -9.384026     19.50117     1619.516        36     1.098     0.941  72.72  24
       229    867.3690    129.1989 300.4164525 +22.6855205     1670.793     69.08593      1.144     2.19     -9.42468     19.50117     268.1498        15     0.885     0.782  75.06   0
       230    971.0522    127.8887 300.4492113 +22.7161849     1323.532     69.13875      1.170     2.10    -9.375299     19.50117     220.9881        13     0.921     0.719  73.71   0
       231    417.0168    124.5300 300.2776935 +22.5492751     230.0502     69.13875      1.131     2.49    -9.086577     19.50117     42.74261         6     0.760     0.498   3.38   0
       232    468.2853    111.9276 300.2977373 +22.5610187     825.3008      69.2267      1.217     2.48    -9.047509     19.50117     129.1744        13     1.027     0.716  82.54   0
       233    106.9808    113.3733 300.1849038 +22.4531310     302.9685     69.13875      1.166     3.38    -9.147359     19.50117     38.59322         7     0.750     0.645 -12.65   0
       234    396.8562    111.5572 300.2756292 +22.5395072     362.3409     69.10354      1.871     4.87    -9.070476     19.50117     24.46646         7     1.023     0.658 -49.23   0
       235    242.3088     91.7473 300.2339853 +22.4874962     2853.649     69.17394      1.268     2.37     -9.06257     19.50117     393.1795        21     1.026     0.924  69.22   0
       236     93.1695     91.3673 300.1877508 +22.4426733     318.1237     69.13875      1.453     3.46      -9.0845     19.50117     53.01722         6     0.922     0.575  64.59   0
       237    871.6556     88.1685 300.4311012 +22.6750074     207.4308     69.13875      1.189     4.49    -9.122507     19.50117     25.16791         6     0.977     0.588 -27.49   0
       238    488.2870     76.9826 300.3152994 +22.5569732     2976.912     69.06831      1.251     2.19    -8.969838     19.50117     421.9687        21     1.016     0.909  83.20   0
       239    740.8395     66.5241 300.3973473 +22.6296158     392.9791     69.08593      1.564     3.23    -8.803044     19.50117     48.00087         9     1.003     0.632 -75.42   0
       240    180.9853     60.4687 300.2250659 +22.4601323     274.9217     69.13875      1.455     5.10    -8.771972     19.50117     34.32319         7     1.072     0.686  78.38   0
       241    539.7540     59.3597 300.3370378 +22.5673291     112.2832     69.17394      0.832     2.30    -8.631745     19.50117     39.74552         5     0.691     0.461 -14.89   0
       242    616.6744     56.9892 300.3617592 +22.5896892      3129.26     69.13875      1.265     2.25    -8.770938     19.50117     446.9157        23     1.019     0.971  80.91   0
       243    391.6048     56.1878 300.2919566 +22.5220302     760.8395      68.9978      1.236     2.40    -8.971938     19.50117     114.0836        12     0.863     0.777 -22.80   0
       244    658.0693     54.2820 300.3755306 +22.6013094     410.0406      69.2267      1.287     2.60    -8.721875     19.50117     58.82776         9     0.867     0.651 -73.14   0
       245    673.4180     50.2960 300.3816049 +22.6047606     294.9835     69.03306      1.318     2.97    -8.683885     19.50117     41.31919         5     0.723     0.448  68.58   0
       246    943.4286     47.6569 300.4666243 +22.6848435     307.6626     69.12115      1.221     3.14    -9.107418     19.50117     49.81038         8     0.913     0.643   1.57   0
       247    140.4033     47.7440 300.2165790 +22.4443130     318.2103     69.08593      1.397     5.28    -8.653916     19.50117     43.96778         7     0.906     0.869  70.78   0
       248    712.5428     45.8066 300.3952503 +22.6151869     238.3387     69.12115      1.294     2.37    -8.657666     19.50117     45.32219         5     0.696     0.482  75.52   0
       249    660.8800     41.9618 300.3804023 +22.5986102     1367.755     69.08592      1.319     2.28    -8.643251     19.50117     219.8885        17     1.054     0.845  84.95   0
       250    676.2264     40.5591 300.3856379 +22.6028030     437.0985     69.17394      1.826     5.76    -8.624894     19.50117     43.66405         9     1.511     0.619  40.48   0
       251    747.2874     33.3493 300.4101171 +22.6220100     810.4984     69.12115      1.278     2.47    -8.572458     19.50117     98.29061        12     0.922     0.747  61.23   0
       252    685.3571     26.5911 300.3930127 +22.6015224     423.5753     69.13875      1.187     2.78    -8.533132     19.50117     48.95944         6     0.787     0.527  42.48   0
       253    490.9857     25.9799 300.3326822 +22.5431284     566.5343     69.08592      1.287     2.02    -8.880986     19.50117     84.15126         9     0.736     0.698  84.51   0
       254     63.3885     25.9153 300.1997260 +22.4149564     267.8792     69.06831      1.120     3.46    -9.030785     19.50117     40.00824         5     0.780     0.444 -71.71   0
       255    394.6571     23.8735 300.3033868 +22.5136625     369.2856     69.15635      1.140     3.06    -8.950066     19.50117     63.92351         7     0.918     0.470 -85.32   0
       256    170.4881   1018.3704 299.9104893 +22.7316981     821.7732     69.12115      9.127     9.87     24.94357     19.50117     42.98531        11     2.146     1.264  53.91  18
       257    171.9408   1013.3510 299.9125753 +22.7306966     1262.506     69.17394      5.858    10.24     23.24291     19.50117     36.37551         8     2.464     1.187   3.31  18
       258    167.0409   1004.6689 299.9138797 +22.7267375     1459.699     69.10354      7.861    13.00     20.41192     19.50117     47.02173        23     2.587     1.818 -64.85   2
